# Acquired on 08/01/2024 16:14:37 
# SPIDER: Creep_-4mm_0771453C
# CREEP MEASUREMENT

# time [ms]		force [N]		stiffness [N/mm]
0.000			10.199			-2.550
100.000			11.305			-2.826
200.000			11.823			-2.956
302.000			11.861			-2.965
401.000			11.824			-2.956
500.000			11.795			-2.949
601.000			11.771			-2.943
700.000			11.751			-2.938
800.000			11.733			-2.933
901.000			11.717			-2.929
1001.000			11.702			-2.925
1102.000			11.678			-2.919
1201.000			11.665			-2.916
1300.000			11.654			-2.914
1401.000			11.644			-2.911
1500.000			11.635			-2.909
1600.000			11.628			-2.907
1701.000			11.619			-2.905
1801.000			11.603			-2.901
1901.000			11.596			-2.899
2001.000			11.590			-2.897
2100.000			11.583			-2.896
2200.000			11.576			-2.894
2301.000			11.572			-2.893
2400.000			11.565			-2.891
2500.000			11.554			-2.889
2602.000			11.550			-2.887
2701.000			11.544			-2.886
2800.000			11.539			-2.885
2901.000			11.534			-2.883
3000.000			11.529			-2.882
3100.000			11.525			-2.881
3201.000			11.517			-2.879
3301.000			11.512			-2.878
3401.000			11.508			-2.877
3501.000			11.503			-2.876
3600.000			11.500			-2.875
3700.000			11.497			-2.874
3801.000			11.493			-2.873
3900.000			11.490			-2.873
4000.000			11.483			-2.871
4102.000			11.479			-2.870
4201.000			11.476			-2.869
4300.000			11.473			-2.868
4400.000			11.470			-2.868
4500.000			11.468			-2.867
4601.000			11.466			-2.866
4700.000			11.458			-2.865
4801.000			11.456			-2.864
4902.000			11.454			-2.863
5000.000			11.450			-2.863
5100.000			11.447			-2.862
5201.000			11.444			-2.861
5300.000			11.441			-2.860
5400.000			11.437			-2.859
5501.000			11.436			-2.859
5601.000			11.433			-2.858
5701.000			11.430			-2.858
5801.000			11.427			-2.857
5900.000			11.425			-2.856
6000.000			11.423			-2.856
6101.000			11.418			-2.855
6200.000			11.416			-2.854
6301.000			11.414			-2.854
6402.000			11.413			-2.853
6500.000			11.409			-2.852
6600.000			11.406			-2.852
6701.000			11.405			-2.851
6800.000			11.403			-2.851
6900.000			11.399			-2.850
7001.000			11.398			-2.849
7101.000			11.395			-2.849
7201.000			11.393			-2.848
7301.000			11.392			-2.848
7400.000			11.390			-2.848
7500.000			11.388			-2.847
7600.000			11.384			-2.846
7700.000			11.381			-2.845
7802.000			11.380			-2.845
7901.000			11.379			-2.845
8000.000			11.378			-2.844
8101.000			11.377			-2.844
8200.000			11.374			-2.844
8300.000			11.372			-2.843
8401.000			11.370			-2.842
8500.000			11.368			-2.842
8601.000			11.366			-2.841
8702.000			11.364			-2.841
8800.000			11.363			-2.841
8900.000			11.360			-2.840
9001.000			11.358			-2.839
9100.000			11.356			-2.839
9200.000			11.355			-2.839
9301.000			11.355			-2.839
9401.000			11.352			-2.838
9501.000			11.350			-2.837
9601.000			11.349			-2.837
9700.000			11.348			-2.837
9800.000			11.345			-2.836
9901.000			11.343			-2.836
10000.000			11.341			-2.835
10101.000			11.340			-2.835
10202.000			11.339			-2.835
10300.000			11.337			-2.834
10400.000			11.337			-2.834
10501.000			11.334			-2.834
10600.000			11.333			-2.833
10700.000			11.332			-2.833
10800.000			11.331			-2.833
10901.000			11.330			-2.832
11002.000			11.328			-2.832
11100.000			11.327			-2.832
11200.000			11.326			-2.831
11301.000			11.324			-2.831
11400.000			11.322			-2.831
11500.000			11.320			-2.830
11601.000			11.318			-2.830
11701.000			11.317			-2.829
11801.000			11.316			-2.829
11901.000			11.315			-2.829
12000.000			11.313			-2.828
12100.000			11.312			-2.828
12201.000			11.311			-2.828
12300.000			11.311			-2.828
12401.000			11.310			-2.828
12502.000			11.309			-2.827
12600.000			11.307			-2.827
12700.000			11.306			-2.826
12801.000			11.305			-2.826
12900.000			11.304			-2.826
13000.000			11.303			-2.826
13101.000			11.301			-2.825
13201.000			11.299			-2.825
13301.000			11.299			-2.825
13401.000			11.296			-2.824
13500.000			11.296			-2.824
13600.000			11.295			-2.824
13701.000			11.293			-2.823
13800.000			11.293			-2.823
13900.000			11.291			-2.823
14002.000			11.291			-2.823
14101.000			11.289			-2.822
14201.000			11.288			-2.822
14300.000			11.287			-2.822
14400.000			11.286			-2.821
14501.000			11.285			-2.821
14600.000			11.284			-2.821
14700.000			11.283			-2.821
14802.000			11.282			-2.821
14901.000			11.280			-2.820
15000.000			11.278			-2.820
15101.000			11.278			-2.820
15200.000			11.277			-2.819
15300.000			11.276			-2.819
15401.000			11.275			-2.819
15501.000			11.274			-2.819
15601.000			11.273			-2.818
15701.000			11.272			-2.818
15800.000			11.271			-2.818
15900.000			11.271			-2.818
16001.000			11.269			-2.817
16100.000			11.268			-2.817
16200.000			11.268			-2.817
16302.000			11.266			-2.817
16401.000			11.266			-2.816
16500.000			11.265			-2.816
16601.000			11.264			-2.816
16700.000			11.263			-2.816
16800.000			11.262			-2.816
16901.000			11.260			-2.815
17000.000			11.260			-2.815
17102.000			11.260			-2.815
17201.000			11.260			-2.815
17300.000			11.258			-2.815
17401.000			11.256			-2.814
17500.000			11.257			-2.814
17600.000			11.255			-2.814
17701.000			11.254			-2.813
17800.000			11.253			-2.813
17901.000			11.252			-2.813
18002.000			11.251			-2.813
18100.000			11.250			-2.812
18200.000			11.250			-2.813
18301.000			11.249			-2.812
18400.000			11.249			-2.812
18500.000			11.247			-2.812
18601.000			11.246			-2.812
18701.000			11.246			-2.811
18801.000			11.245			-2.811
18901.000			11.243			-2.811
19000.000			11.242			-2.810
19100.000			11.242			-2.811
19201.000			11.241			-2.810
19300.000			11.241			-2.810
19400.000			11.240			-2.810
19502.000			11.239			-2.810
19601.000			11.238			-2.809
19700.000			11.237			-2.809
19801.000			11.237			-2.809
19900.000			11.236			-2.809
20000.000			11.235			-2.809
20101.000			11.234			-2.809
20201.000			11.234			-2.808
20302.000			11.234			-2.808
20401.000			11.233			-2.808
20500.000			11.232			-2.808
20601.000			11.231			-2.808
20700.000			11.230			-2.808
20800.000			11.229			-2.807
20901.000			11.228			-2.807
21001.000			11.228			-2.807
21101.000			11.228			-2.807
21201.000			11.227			-2.807
21300.000			11.225			-2.806
21400.000			11.224			-2.806
21501.000			11.223			-2.806
21600.000			11.222			-2.806
21700.000			11.222			-2.806
21802.000			11.221			-2.805
21901.000			11.220			-2.805
22000.000			11.220			-2.805
22101.000			11.220			-2.805
22200.000			11.219			-2.805
22300.000			11.218			-2.804
22401.000			11.217			-2.804
22501.000			11.217			-2.804
22601.000			11.215			-2.804
22701.000			11.214			-2.803
22800.000			11.214			-2.804
22900.000			11.215			-2.804
23001.000			11.214			-2.803
23100.000			11.213			-2.803
23200.000			11.212			-2.803
23302.000			11.211			-2.803
23401.000			11.211			-2.803
23500.000			11.211			-2.803
23600.000			11.209			-2.802
23700.000			11.210			-2.802
23801.000			11.209			-2.802
23900.000			11.208			-2.802
24000.000			11.207			-2.802
24102.000			11.206			-2.802
24201.000			11.205			-2.801
24300.000			11.204			-2.801
24401.000			11.203			-2.801
24500.000			11.203			-2.801
24600.000			11.203			-2.801
24701.000			11.203			-2.801
24801.000			11.202			-2.800
24901.000			11.201			-2.800
25001.000			11.200			-2.800
25100.000			11.199			-2.800
25200.000			11.198			-2.800
25301.000			11.198			-2.800
25400.000			11.198			-2.800
25500.000			11.197			-2.799
25602.000			11.197			-2.799
25701.000			11.195			-2.799
25800.000			11.194			-2.799
25901.000			11.193			-2.798
26000.000			11.193			-2.798
26100.000			11.193			-2.798
26201.000			11.193			-2.798
26300.000			11.192			-2.798
26401.000			11.191			-2.798
26502.000			11.190			-2.798
26600.000			11.190			-2.797
26700.000			11.190			-2.797
26800.000			11.190			-2.797
26900.000			11.188			-2.797
27001.000			11.188			-2.797
27100.000			11.188			-2.797
27201.000			11.187			-2.797
27302.000			11.187			-2.797
27400.000			11.187			-2.797
27500.000			11.187			-2.797
27601.000			11.185			-2.796
27700.000			11.185			-2.796
27800.000			11.184			-2.796
27901.000			11.183			-2.796
28001.000			11.184			-2.796
28101.000			11.182			-2.796
28201.000			11.181			-2.795
28300.000			11.180			-2.795
28400.000			11.180			-2.795
28501.000			11.179			-2.795
28600.000			11.179			-2.795
28700.000			11.179			-2.795
28802.000			11.179			-2.795
28901.000			11.179			-2.795
29000.000			11.177			-2.794
29101.000			11.176			-2.794
29200.000			11.176			-2.794
29300.000			11.176			-2.794
29401.000			11.175			-2.794
29500.000			11.175			-2.794
29601.000			11.175			-2.794
29702.000			11.174			-2.794
29800.000			11.173			-2.793
29900.000			11.172			-2.793
30000.000			11.172			-2.793
30100.000			11.173			-2.793
30201.000			11.171			-2.793
30300.000			11.170			-2.793
30401.000			11.169			-2.792
30502.000			11.169			-2.792
30600.000			11.168			-2.792
30700.000			11.169			-2.792
30801.000			11.169			-2.792
30900.000			11.168			-2.792
31000.000			11.167			-2.792
31101.000			11.166			-2.791
31201.000			11.165			-2.791
31301.000			11.166			-2.792
31401.000			11.167			-2.792
31500.000			11.165			-2.791
31600.000			11.165			-2.791
31701.000			11.164			-2.791
31800.000			11.163			-2.791
31901.000			11.163			-2.791
32002.000			11.162			-2.791
32100.000			11.161			-2.790
32200.000			11.161			-2.790
32301.000			11.161			-2.790
32400.000			11.160			-2.790
32500.000			11.160			-2.790
32601.000			11.160			-2.790
32701.000			11.160			-2.790
32801.000			11.158			-2.790
32901.000			11.158			-2.790
33000.000			11.158			-2.789
33100.000			11.157			-2.789
33200.000			11.156			-2.789
33300.000			11.155			-2.789
33401.000			11.154			-2.789
33501.000			11.155			-2.789
33601.000			11.155			-2.789
33701.000			11.155			-2.789
33800.000			11.155			-2.789
33900.000			11.154			-2.788
34001.000			11.154			-2.788
34100.000			11.153			-2.788
34201.000			11.152			-2.788
34302.000			11.152			-2.788
34400.000			11.151			-2.788
34500.000			11.150			-2.788
34601.000			11.150			-2.787
34700.000			11.150			-2.787
34800.000			11.150			-2.788
34901.000			11.150			-2.787
35001.000			11.147			-2.787
35101.000			11.148			-2.787
35201.000			11.146			-2.787
35300.000			11.146			-2.787
35400.000			11.146			-2.786
35501.000			11.146			-2.786
35600.000			11.146			-2.786
35700.000			11.145			-2.786
35802.000			11.145			-2.786
35901.000			11.144			-2.786
36000.000			11.144			-2.786
36101.000			11.144			-2.786
36200.000			11.144			-2.786
36300.000			11.143			-2.786
36400.000			11.142			-2.785
36500.000			11.142			-2.785
36602.000			11.141			-2.785
36701.000			11.140			-2.785
36800.000			11.140			-2.785
36901.000			11.139			-2.785
37000.000			11.139			-2.785
37100.000			11.139			-2.785
37201.000			11.139			-2.785
37301.000			11.138			-2.784
37401.000			11.138			-2.784
37501.000			11.138			-2.784
37600.000			11.137			-2.784
37700.000			11.136			-2.784
37801.000			11.136			-2.784
37900.000			11.136			-2.784
38000.000			11.135			-2.784
38102.000			11.135			-2.784
38201.000			11.135			-2.784
38300.000			11.134			-2.784
38401.000			11.133			-2.783
38500.000			11.133			-2.783
38600.000			11.133			-2.783
38701.000			11.133			-2.783
38800.000			11.132			-2.783
38901.000			11.131			-2.783
39002.000			11.131			-2.783
39100.000			11.131			-2.783
39200.000			11.130			-2.783
39301.000			11.130			-2.783
39400.000			11.130			-2.783
39500.000			11.131			-2.783
39600.000			11.129			-2.782
39701.000			11.128			-2.782
39802.000			11.128			-2.782
39900.000			11.127			-2.782
40000.000			11.127			-2.782
40101.000			11.126			-2.781
40200.000			11.127			-2.782
40300.000			11.126			-2.781
40402.000			11.125			-2.781
40501.000			11.125			-2.781
40600.000			11.125			-2.781
40701.000			11.124			-2.781
40800.000			11.124			-2.781
40900.000			11.125			-2.781
41001.000			11.124			-2.781
41100.000			11.124			-2.781
41201.000			11.123			-2.781
41302.000			11.122			-2.780
41400.000			11.122			-2.780
41500.000			11.122			-2.780
41601.000			11.122			-2.780
41700.000			11.121			-2.780
41800.000			11.120			-2.780
41901.000			11.120			-2.780
42001.000			11.121			-2.780
42101.000			11.120			-2.780
42201.000			11.120			-2.780
42300.000			11.119			-2.780
42400.000			11.118			-2.780
42501.000			11.117			-2.779
42600.000			11.117			-2.779
42702.000			11.118			-2.779
42801.000			11.117			-2.779
42900.000			11.117			-2.779
43001.000			11.117			-2.779
43100.000			11.115			-2.779
43200.000			11.115			-2.779
43301.000			11.115			-2.779
43400.000			11.115			-2.779
43501.000			11.115			-2.779
43602.000			11.114			-2.779
43700.000			11.114			-2.779
43800.000			11.113			-2.778
43901.000			11.112			-2.778
44000.000			11.111			-2.778
44100.000			11.112			-2.778
44202.000			11.112			-2.778
44301.000			11.112			-2.778
44400.000			11.111			-2.778
44501.000			11.110			-2.778
44600.000			11.110			-2.778
44700.000			11.111			-2.778
44801.000			11.110			-2.777
44900.000			11.111			-2.778
45001.000			11.110			-2.777
45102.000			11.110			-2.777
45200.000			11.110			-2.777
45300.000			11.107			-2.777
45401.000			11.107			-2.777
45500.000			11.107			-2.777
45600.000			11.107			-2.777
45702.000			11.107			-2.777
45801.000			11.107			-2.777
45902.000			11.106			-2.776
46000.000			11.106			-2.776
46100.000			11.105			-2.776
46201.000			11.105			-2.776
46300.000			11.105			-2.776
46400.000			11.104			-2.776
46502.000			11.104			-2.776
46601.000			11.103			-2.776
46700.000			11.102			-2.776
46801.000			11.102			-2.775
46900.000			11.102			-2.775
47000.000			11.101			-2.775
47101.000			11.101			-2.775
47200.000			11.101			-2.775
47301.000			11.101			-2.775
47402.000			11.101			-2.775
47500.000			11.100			-2.775
47600.000			11.100			-2.775
47701.000			11.100			-2.775
47800.000			11.100			-2.775
47900.000			11.100			-2.775
48001.000			11.100			-2.775
48101.000			11.099			-2.775
48201.000			11.099			-2.775
48301.000			11.098			-2.774
48400.000			11.098			-2.774
48500.000			11.098			-2.775
48601.000			11.099			-2.775
48700.000			11.098			-2.775
48800.000			11.097			-2.774
48902.000			11.096			-2.774
49001.000			11.096			-2.774
49100.000			11.097			-2.774
49200.000			11.096			-2.774
49300.000			11.094			-2.774
49401.000			11.094			-2.774
49500.000			11.095			-2.774
49600.000			11.094			-2.774
49702.000			11.094			-2.773
49801.000			11.093			-2.773
49900.000			11.092			-2.773
50001.000			11.092			-2.773
50100.000			11.092			-2.773
50200.000			11.092			-2.773
50301.000			11.092			-2.773
50400.000			11.091			-2.773
50501.000			11.091			-2.773
50602.000			11.091			-2.773
50700.000			11.091			-2.773
50800.000			11.091			-2.773
50901.000			11.090			-2.773
51000.000			11.089			-2.772
51100.000			11.088			-2.772
51201.000			11.089			-2.772
51301.000			11.089			-2.772
51401.000			11.090			-2.772
51501.000			11.088			-2.772
51600.000			11.088			-2.772
51700.000			11.088			-2.772
51801.000			11.086			-2.772
51900.000			11.087			-2.772
52000.000			11.086			-2.772
52102.000			11.087			-2.772
52201.000			11.087			-2.772
52300.000			11.086			-2.771
52400.000			11.086			-2.772
52500.000			11.084			-2.771
52601.000			11.085			-2.771
52700.000			11.085			-2.771
52800.000			11.084			-2.771
52902.000			11.084			-2.771
53001.000			11.085			-2.771
53100.000			11.085			-2.771
53201.000			11.083			-2.771
53300.000			11.082			-2.771
53400.000			11.083			-2.771
53501.000			11.083			-2.771
53601.000			11.083			-2.771
53701.000			11.083			-2.771
53801.000			11.082			-2.770
53900.000			11.081			-2.770
54000.000			11.082			-2.770
54101.000			11.082			-2.770
54200.000			11.081			-2.770
54300.000			11.080			-2.770
54402.000			11.080			-2.770
54501.000			11.080			-2.770
54600.000			11.079			-2.770
54701.000			11.079			-2.770
54800.000			11.078			-2.770
54900.000			11.079			-2.770
55001.000			11.079			-2.770
55100.000			11.078			-2.770
55201.000			11.077			-2.769
55302.000			11.078			-2.769
55400.000			11.076			-2.769
55500.000			11.077			-2.769
55600.000			11.076			-2.769
55700.000			11.076			-2.769
55801.000			11.077			-2.769
55900.000			11.076			-2.769
56001.000			11.076			-2.769
56102.000			11.076			-2.769
56200.000			11.075			-2.769
56300.000			11.074			-2.769
56401.000			11.074			-2.769
56500.000			11.074			-2.769
56600.000			11.074			-2.768
56701.000			11.072			-2.768
56801.000			11.072			-2.768
56901.000			11.073			-2.768
57001.000			11.071			-2.768
57100.000			11.072			-2.768
57200.000			11.071			-2.768
57301.000			11.071			-2.768
57400.000			11.071			-2.768
57500.000			11.071			-2.768
57602.000			11.071			-2.768
57701.000			11.072			-2.768
57800.000			11.071			-2.768
57901.000			11.070			-2.768
58000.000			11.070			-2.767
58100.000			11.069			-2.767
58201.000			11.069			-2.767
58300.000			11.070			-2.767
58401.000			11.069			-2.767
58502.000			11.067			-2.767
58600.000			11.067			-2.767
58700.000			11.068			-2.767
58800.000			11.067			-2.767
58900.000			11.067			-2.767
59001.000			11.067			-2.767
59100.000			11.065			-2.766
59201.000			11.065			-2.766
59302.000			11.066			-2.766
59400.000			11.066			-2.767
59500.000			11.065			-2.766
59601.000			11.064			-2.766
59700.000			11.065			-2.766
59800.000			11.066			-2.766
59901.000			11.065			-2.766
60001.000			11.064			-2.766
60101.000			11.063			-2.766
60201.000			11.063			-2.766
60300.000			11.062			-2.766
60400.000			11.063			-2.766
60501.000			11.064			-2.766
60600.000			11.063			-2.766
60700.000			11.062			-2.765
60802.000			11.062			-2.765
60901.000			11.062			-2.765
61000.000			11.063			-2.766
61101.000			11.062			-2.766
61200.000			11.062			-2.765
61300.000			11.060			-2.765
61401.000			11.060			-2.765
61500.000			11.061			-2.765
61601.000			11.060			-2.765
61702.000			11.060			-2.765
61800.000			11.061			-2.765
61900.000			11.061			-2.765
62000.000			11.060			-2.765
62100.000			11.059			-2.765
62201.000			11.058			-2.765
62301.000			11.059			-2.765
62401.000			11.059			-2.765
62501.000			11.058			-2.764
62600.000			11.058			-2.765
62700.000			11.057			-2.764
62801.000			11.058			-2.764
62900.000			11.057			-2.764
63000.000			11.057			-2.764
63102.000			11.057			-2.764
63201.000			11.057			-2.764
63300.000			11.056			-2.764
63401.000			11.056			-2.764
63500.000			11.056			-2.764
63600.000			11.056			-2.764
63701.000			11.055			-2.764
63800.000			11.054			-2.764
63901.000			11.054			-2.764
64002.000			11.055			-2.764
64100.000			11.054			-2.764
64200.000			11.054			-2.763
64301.000			11.053			-2.763
64400.000			11.052			-2.763
64500.000			11.053			-2.763
64601.000			11.053			-2.763
64701.000			11.053			-2.763
64801.000			11.053			-2.763
64901.000			11.052			-2.763
65000.000			11.052			-2.763
65100.000			11.052			-2.763
65200.000			11.051			-2.763
65300.000			11.052			-2.763
65401.000			11.051			-2.763
65501.000			11.051			-2.763
65601.000			11.051			-2.763
65701.000			11.050			-2.763
65800.000			11.050			-2.762
65900.000			11.050			-2.762
66001.000			11.049			-2.762
66100.000			11.049			-2.762
66200.000			11.049			-2.762
66302.000			11.049			-2.762
66401.000			11.047			-2.762
66500.000			11.047			-2.762
66601.000			11.049			-2.762
66700.000			11.049			-2.762
66800.000			11.049			-2.762
66901.000			11.049			-2.762
67000.000			11.048			-2.762
67101.000			11.047			-2.762
67202.000			11.046			-2.761
67300.000			11.045			-2.761
67400.000			11.046			-2.761
67501.000			11.046			-2.761
67600.000			11.046			-2.761
67700.000			11.046			-2.761
67801.000			11.046			-2.761
67901.000			11.046			-2.762
68001.000			11.046			-2.761
68101.000			11.045			-2.761
68200.000			11.045			-2.761
68300.000			11.044			-2.761
68400.000			11.044			-2.761
68500.000			11.044			-2.761
68601.000			11.044			-2.761
68701.000			11.044			-2.761
68801.000			11.044			-2.761
68901.000			11.044			-2.761
69000.000			11.043			-2.761
69100.000			11.042			-2.761
69201.000			11.043			-2.761
69300.000			11.042			-2.761
69400.000			11.042			-2.761
69502.000			11.041			-2.760
69601.000			11.042			-2.760
69700.000			11.042			-2.760
69801.000			11.041			-2.760
69900.000			11.041			-2.760
70000.000			11.041			-2.760
70101.000			11.040			-2.760
70201.000			11.040			-2.760
70301.000			11.040			-2.760
70402.000			11.040			-2.760
70500.000			11.039			-2.760
70600.000			11.040			-2.760
70701.000			11.039			-2.760
70800.000			11.038			-2.760
70900.000			11.038			-2.759
71001.000			11.039			-2.760
71101.000			11.039			-2.760
71201.000			11.038			-2.759
