# Acquired on 20/12/2023 11:46:32 
# SPIDER: Creep_-3mm_07714532C-2
# CREEP MEASUREMENT

# time [ms]		force [N]		stiffness [N/mm]
0.000			5.992			-1.997
100.000			6.619			-2.206
200.000			6.868			-2.289
301.000			6.897			-2.299
400.000			6.879			-2.293
501.000			6.863			-2.288
602.000			6.851			-2.284
700.000			6.832			-2.277
800.000			6.823			-2.274
901.000			6.815			-2.272
1000.000			6.807			-2.269
1100.000			6.801			-2.267
1202.000			6.796			-2.265
1301.000			6.790			-2.263
1401.000			6.779			-2.260
1500.000			6.775			-2.258
1600.000			6.769			-2.256
1701.000			6.766			-2.255
1800.000			6.763			-2.254
1900.000			6.759			-2.253
2002.000			6.755			-2.252
2101.000			6.749			-2.250
2200.000			6.744			-2.248
2301.000			6.741			-2.247
2400.000			6.739			-2.246
2500.000			6.735			-2.245
2601.000			6.733			-2.244
2701.000			6.731			-2.244
2801.000			6.728			-2.243
2902.000			6.721			-2.240
3000.000			6.720			-2.240
3100.000			6.718			-2.239
3201.000			6.715			-2.238
3300.000			6.713			-2.238
3400.000			6.711			-2.237
3502.000			6.709			-2.236
3601.000			6.706			-2.235
3700.000			6.704			-2.235
3801.000			6.701			-2.234
3900.000			6.699			-2.233
4000.000			6.697			-2.232
4101.000			6.695			-2.232
4200.000			6.693			-2.231
4301.000			6.690			-2.230
4402.000			6.687			-2.229
4500.000			6.687			-2.229
4601.000			6.685			-2.228
4700.000			6.684			-2.228
4800.000			6.682			-2.227
4901.000			6.681			-2.227
5000.000			6.678			-2.226
5101.000			6.676			-2.225
5202.000			6.675			-2.225
5300.000			6.674			-2.225
5400.000			6.673			-2.224
5501.000			6.671			-2.224
5600.000			6.670			-2.223
5700.000			6.668			-2.223
5802.000			6.666			-2.222
5901.000			6.665			-2.222
6000.000			6.663			-2.221
6101.000			6.662			-2.221
6200.000			6.661			-2.220
6300.000			6.659			-2.220
6401.000			6.657			-2.219
6500.000			6.656			-2.219
6601.000			6.654			-2.218
6702.000			6.653			-2.218
6800.000			6.652			-2.217
6900.000			6.651			-2.217
7001.000			6.650			-2.217
7100.000			6.648			-2.216
7200.000			6.647			-2.216
7301.000			6.647			-2.216
7401.000			6.645			-2.215
7501.000			6.644			-2.215
7601.000			6.643			-2.214
7700.000			6.641			-2.214
7801.000			6.641			-2.214
7900.000			6.640			-2.213
8000.000			6.639			-2.213
8101.000			6.637			-2.212
8201.000			6.636			-2.212
8301.000			6.637			-2.212
8401.000			6.636			-2.212
8500.000			6.635			-2.212
8600.000			6.633			-2.211
8701.000			6.630			-2.210
8800.000			6.630			-2.210
8900.000			6.630			-2.210
9002.000			6.629			-2.210
9101.000			6.628			-2.209
9200.000			6.626			-2.209
9301.000			6.625			-2.208
9400.000			6.625			-2.208
9500.000			6.623			-2.208
9601.000			6.622			-2.207
9701.000			6.622			-2.207
9801.000			6.621			-2.207
9901.000			6.622			-2.207
10000.000			6.621			-2.207
10100.000			6.620			-2.207
10201.000			6.618			-2.206
10300.000			6.617			-2.206
10400.000			6.616			-2.205
10502.000			6.615			-2.205
10601.000			6.614			-2.205
10700.000			6.614			-2.205
10801.000			6.612			-2.204
10900.000			6.611			-2.204
11001.000			6.611			-2.204
11100.000			6.609			-2.203
11200.000			6.609			-2.203
11302.000			6.609			-2.203
11401.000			6.609			-2.203
11500.000			6.609			-2.203
11601.000			6.608			-2.203
11700.000			6.606			-2.202
11800.000			6.604			-2.201
11901.000			6.604			-2.201
12000.000			6.603			-2.201
12101.000			6.602			-2.201
12202.000			6.602			-2.201
12300.000			6.601			-2.200
12400.000			6.600			-2.200
12501.000			6.599			-2.200
12600.000			6.599			-2.200
12700.000			6.599			-2.200
12801.000			6.598			-2.199
12901.000			6.597			-2.199
13001.000			6.596			-2.199
13101.000			6.597			-2.199
13200.000			6.596			-2.199
13300.000			6.597			-2.199
13401.000			6.595			-2.198
13500.000			6.593			-2.198
13600.000			6.592			-2.197
13702.000			6.592			-2.197
13801.000			6.592			-2.197
13900.000			6.590			-2.197
14001.000			6.591			-2.197
14100.000			6.591			-2.197
14201.000			6.590			-2.197
14300.000			6.589			-2.196
14400.000			6.588			-2.196
14502.000			6.588			-2.196
14601.000			6.587			-2.196
14700.000			6.586			-2.195
14801.000			6.586			-2.195
14900.000			6.586			-2.195
15000.000			6.585			-2.195
15101.000			6.583			-2.194
15200.000			6.583			-2.194
15301.000			6.583			-2.194
15402.000			6.582			-2.194
15500.000			6.581			-2.194
15600.000			6.581			-2.194
15701.000			6.580			-2.193
15800.000			6.579			-2.193
15900.000			6.579			-2.193
16001.000			6.579			-2.193
16101.000			6.577			-2.192
16201.000			6.578			-2.193
16301.000			6.577			-2.192
16400.000			6.576			-2.192
16500.000			6.576			-2.192
16601.000			6.576			-2.192
16700.000			6.576			-2.192
16800.000			6.574			-2.191
16902.000			6.574			-2.191
17001.000			6.574			-2.191
17100.000			6.574			-2.191
17201.000			6.573			-2.191
17300.000			6.571			-2.190
17401.000			6.570			-2.190
17500.000			6.570			-2.190
17600.000			6.571			-2.190
17702.000			6.570			-2.190
17801.000			6.570			-2.190
17900.000			6.569			-2.190
18001.000			6.568			-2.189
18100.000			6.568			-2.189
18200.000			6.568			-2.189
18301.000			6.566			-2.189
18400.000			6.567			-2.189
18500.000			6.566			-2.189
18602.000			6.566			-2.189
18701.000			6.566			-2.189
18800.000			6.565			-2.188
18901.000			6.565			-2.188
19000.000			6.563			-2.188
19100.000			6.563			-2.188
19201.000			6.562			-2.187
19300.000			6.562			-2.187
19401.000			6.563			-2.188
19502.000			6.562			-2.187
19600.000			6.561			-2.187
19700.000			6.561			-2.187
19801.000			6.560			-2.187
19900.000			6.559			-2.186
20000.000			6.559			-2.186
20101.000			6.560			-2.187
20201.000			6.560			-2.187
20301.000			6.559			-2.186
20401.000			6.557			-2.186
20500.000			6.556			-2.185
20601.000			6.556			-2.185
20700.000			6.557			-2.186
20800.000			6.557			-2.186
20901.000			6.556			-2.185
21001.000			6.555			-2.185
21101.000			6.555			-2.185
21201.000			6.554			-2.185
21300.000			6.554			-2.185
21400.000			6.554			-2.185
21501.000			6.553			-2.184
21600.000			6.552			-2.184
21700.000			6.553			-2.184
21802.000			6.553			-2.184
21901.000			6.552			-2.184
22000.000			6.552			-2.184
22101.000			6.551			-2.184
22200.000			6.551			-2.184
22300.000			6.551			-2.184
22401.000			6.549			-2.183
22501.000			6.548			-2.183
22601.000			6.549			-2.183
22702.000			6.548			-2.183
22800.000			6.548			-2.183
22900.000			6.548			-2.183
23001.000			6.548			-2.183
23100.000			6.547			-2.182
23200.000			6.548			-2.183
23302.000			6.546			-2.182
23401.000			6.544			-2.181
23501.000			6.545			-2.182
23601.000			6.545			-2.182
23700.000			6.545			-2.182
23801.000			6.545			-2.182
23900.000			6.545			-2.182
24000.000			6.545			-2.182
24101.000			6.544			-2.181
24201.000			6.543			-2.181
24301.000			6.542			-2.181
24401.000			6.542			-2.181
24500.000			6.542			-2.181
24600.000			6.541			-2.180
24701.000			6.541			-2.180
24800.000			6.541			-2.180
24901.000			6.541			-2.180
25002.000			6.540			-2.180
25101.000			6.539			-2.180
25200.000			6.539			-2.180
25301.000			6.540			-2.180
25400.000			6.540			-2.180
25500.000			6.539			-2.180
25601.000			6.539			-2.180
25701.000			6.538			-2.179
25801.000			6.538			-2.179
25901.000			6.539			-2.180
26000.000			6.538			-2.179
26100.000			6.537			-2.179
26201.000			6.537			-2.179
26300.000			6.535			-2.178
26400.000			6.536			-2.179
26502.000			6.536			-2.179
26601.000			6.534			-2.178
26700.000			6.534			-2.178
26801.000			6.535			-2.178
26900.000			6.534			-2.178
27001.000			6.532			-2.177
27100.000			6.532			-2.177
27200.000			6.532			-2.177
27302.000			6.533			-2.178
27401.000			6.533			-2.178
27500.000			6.532			-2.177
27601.000			6.532			-2.177
27700.000			6.531			-2.177
27800.000			6.529			-2.176
27901.000			6.531			-2.177
28000.000			6.531			-2.177
28101.000			6.530			-2.177
28202.000			6.530			-2.177
28300.000			6.529			-2.176
28400.000			6.530			-2.177
28501.000			6.529			-2.176
28600.000			6.528			-2.176
28700.000			6.528			-2.176
28801.000			6.528			-2.176
28901.000			6.528			-2.176
29001.000			6.527			-2.176
29102.000			6.528			-2.176
29200.000			6.526			-2.175
29300.000			6.526			-2.175
29401.000			6.526			-2.175
29500.000			6.525			-2.175
29600.000			6.526			-2.175
29702.000			6.526			-2.175
29801.000			6.525			-2.175
29901.000			6.524			-2.175
30001.000			6.524			-2.175
30100.000			6.524			-2.175
30201.000			6.522			-2.174
30300.000			6.522			-2.174
30400.000			6.522			-2.174
30502.000			6.523			-2.174
30601.000			6.523			-2.174
30700.000			6.522			-2.174
30801.000			6.522			-2.174
30900.000			6.522			-2.174
31000.000			6.522			-2.174
31101.000			6.520			-2.173
31200.000			6.520			-2.173
31301.000			6.521			-2.174
31402.000			6.520			-2.173
31500.000			6.520			-2.173
31600.000			6.520			-2.173
31701.000			6.520			-2.173
31800.000			6.519			-2.173
31900.000			6.519			-2.173
32001.000			6.519			-2.173
32101.000			6.518			-2.173
32201.000			6.518			-2.173
32301.000			6.517			-2.172
32400.000			6.517			-2.172
32500.000			6.517			-2.172
32601.000			6.517			-2.172
32700.000			6.517			-2.172
32800.000			6.517			-2.172
32902.000			6.516			-2.172
33001.000			6.515			-2.172
33100.000			6.515			-2.172
33201.000			6.516			-2.172
33300.000			6.515			-2.172
33401.000			6.514			-2.171
33500.000			6.514			-2.171
33600.000			6.514			-2.171
33702.000			6.514			-2.171
33801.000			6.514			-2.171
33900.000			6.513			-2.171
34001.000			6.513			-2.171
34100.000			6.513			-2.171
34200.000			6.514			-2.171
34301.000			6.514			-2.171
34401.000			6.512			-2.171
34501.000			6.512			-2.171
34601.000			6.512			-2.171
34700.000			6.513			-2.171
34800.000			6.512			-2.171
34901.000			6.511			-2.170
35000.000			6.511			-2.170
35100.000			6.510			-2.170
35202.000			6.511			-2.170
35301.000			6.510			-2.170
35400.000			6.510			-2.170
35501.000			6.509			-2.170
35600.000			6.508			-2.169
35700.000			6.508			-2.169
35801.000			6.509			-2.170
35900.000			6.508			-2.169
36001.000			6.507			-2.169
36102.000			6.507			-2.169
36200.000			6.507			-2.169
36300.000			6.506			-2.169
36401.000			6.507			-2.169
36500.000			6.507			-2.169
36601.000			6.508			-2.169
36700.000			6.507			-2.169
36801.000			6.506			-2.169
36902.000			6.506			-2.169
37000.000			6.506			-2.169
37100.000			6.506			-2.169
37201.000			6.506			-2.169
37300.000			6.505			-2.168
37400.000			6.505			-2.168
37501.000			6.504			-2.168
37601.000			6.504			-2.168
37701.000			6.504			-2.168
37801.000			6.504			-2.168
37900.000			6.503			-2.168
38000.000			6.505			-2.168
38101.000			6.505			-2.168
38200.000			6.504			-2.168
38300.000			6.504			-2.168
38402.000			6.502			-2.167
38501.000			6.502			-2.167
38601.000			6.502			-2.167
38701.000			6.502			-2.167
38800.000			6.502			-2.167
38900.000			6.502			-2.167
39001.000			6.501			-2.167
39100.000			6.501			-2.167
39200.000			6.501			-2.167
39302.000			6.500			-2.167
39401.000			6.500			-2.167
39500.000			6.500			-2.167
39601.000			6.500			-2.167
39700.000			6.499			-2.166
39801.000			6.500			-2.167
39900.000			6.500			-2.167
40000.000			6.499			-2.166
40102.000			6.498			-2.166
40201.000			6.498			-2.166
40300.000			6.498			-2.166
40401.000			6.498			-2.166
40500.000			6.498			-2.166
40600.000			6.498			-2.166
40701.000			6.498			-2.166
40800.000			6.498			-2.166
40901.000			6.498			-2.166
41002.000			6.498			-2.166
41101.000			6.498			-2.166
41200.000			6.497			-2.166
41301.000			6.497			-2.166
41400.000			6.496			-2.165
41500.000			6.496			-2.165
41601.000			6.495			-2.165
41701.000			6.495			-2.165
41801.000			6.495			-2.165
41902.000			6.495			-2.165
42000.000			6.495			-2.165
42100.000			6.495			-2.165
42201.000			6.494			-2.165
42300.000			6.494			-2.165
42400.000			6.494			-2.165
42502.000			6.494			-2.165
42601.000			6.494			-2.165
42701.000			6.493			-2.164
42801.000			6.493			-2.164
42900.000			6.493			-2.164
43001.000			6.493			-2.164
43100.000			6.493			-2.164
43200.000			6.492			-2.164
43301.000			6.492			-2.164
43401.000			6.492			-2.164
43501.000			6.491			-2.164
43601.000			6.491			-2.164
43700.000			6.491			-2.164
43800.000			6.491			-2.164
43901.000			6.491			-2.164
44000.000			6.490			-2.163
44100.000			6.490			-2.163
44202.000			6.491			-2.164
44301.000			6.490			-2.163
44400.000			6.490			-2.163
44501.000			6.490			-2.163
44600.000			6.490			-2.163
44700.000			6.490			-2.163
44801.000			6.490			-2.163
44900.000			6.490			-2.163
45001.000			6.489			-2.163
45102.000			6.489			-2.163
45200.000			6.488			-2.163
45300.000			6.488			-2.163
45401.000			6.488			-2.163
45500.000			6.488			-2.163
45600.000			6.489			-2.163
45701.000			6.488			-2.163
45801.000			6.488			-2.163
45901.000			6.488			-2.163
46001.000			6.488			-2.163
46100.000			6.486			-2.162
46201.000			6.486			-2.162
46300.000			6.485			-2.162
46400.000			6.485			-2.162
46501.000			6.486			-2.162
46600.000			6.486			-2.162
46701.000			6.486			-2.162
46802.000			6.485			-2.162
46900.000			6.486			-2.162
47000.000			6.485			-2.162
47101.000			6.484			-2.161
47200.000			6.485			-2.162
47300.000			6.484			-2.161
47401.000			6.484			-2.161
47501.000			6.484			-2.161
47601.000			6.484			-2.161
47701.000			6.484			-2.161
47800.000			6.483			-2.161
47900.000			6.482			-2.161
48001.000			6.483			-2.161
48100.000			6.483			-2.161
48200.000			6.482			-2.161
48302.000			6.483			-2.161
48401.000			6.483			-2.161
48500.000			6.482			-2.161
48601.000			6.483			-2.161
48700.000			6.482			-2.161
48800.000			6.481			-2.160
48901.000			6.481			-2.160
49000.000			6.482			-2.161
49101.000			6.481			-2.160
49202.000			6.480			-2.160
49301.000			6.481			-2.160
49401.000			6.481			-2.160
49500.000			6.481			-2.160
49600.000			6.481			-2.160
49701.000			6.480			-2.160
49800.000			6.479			-2.160
49900.000			6.480			-2.160
50002.000			6.480			-2.160
50101.000			6.480			-2.160
50200.000			6.479			-2.160
50301.000			6.478			-2.159
50400.000			6.478			-2.159
50500.000			6.478			-2.159
50601.000			6.479			-2.160
50700.000			6.478			-2.159
50801.000			6.478			-2.159
50902.000			6.478			-2.159
51000.000			6.478			-2.159
51100.000			6.478			-2.159
51201.000			6.478			-2.159
51300.000			6.476			-2.159
51400.000			6.477			-2.159
51501.000			6.477			-2.159
51601.000			6.477			-2.159
51701.000			6.477			-2.159
51801.000			6.476			-2.159
51900.000			6.477			-2.159
52000.000			6.477			-2.159
52101.000			6.477			-2.159
52200.000			6.476			-2.159
52300.000			6.476			-2.159
52402.000			6.476			-2.159
52501.000			6.476			-2.159
52601.000			6.475			-2.158
52700.000			6.475			-2.158
52800.000			6.474			-2.158
52901.000			6.474			-2.158
53000.000			6.475			-2.158
53100.000			6.476			-2.159
53202.000			6.475			-2.158
53301.000			6.474			-2.158
53400.000			6.474			-2.158
53501.000			6.474			-2.158
53600.000			6.474			-2.158
53700.000			6.474			-2.158
53801.000			6.474			-2.158
53900.000			6.475			-2.158
54000.000			6.474			-2.158
54102.000			6.472			-2.157
54201.000			6.471			-2.157
54300.000			6.471			-2.157
54401.000			6.472			-2.157
54500.000			6.472			-2.157
54600.000			6.472			-2.157
54701.000			6.472			-2.157
54800.000			6.471			-2.157
54901.000			6.470			-2.157
55002.000			6.471			-2.157
55100.000			6.471			-2.157
55200.000			6.472			-2.157
55301.000			6.471			-2.157
55400.000			6.471			-2.157
55500.000			6.471			-2.157
55601.000			6.469			-2.156
55701.000			6.470			-2.157
55802.000			6.470			-2.157
55900.000			6.470			-2.157
56000.000			6.470			-2.157
56101.000			6.470			-2.157
56200.000			6.469			-2.156
56300.000			6.469			-2.156
56401.000			6.469			-2.156
56501.000			6.468			-2.156
56601.000			6.469			-2.156
56701.000			6.469			-2.156
56800.000			6.469			-2.156
56900.000			6.468			-2.156
57001.000			6.468			-2.156
57100.000			6.468			-2.156
57200.000			6.468			-2.156
57301.000			6.467			-2.156
57401.000			6.468			-2.156
57501.000			6.468			-2.156
57601.000			6.468			-2.156
57700.000			6.467			-2.156
57800.000			6.465			-2.155
57901.000			6.466			-2.155
58000.000			6.466			-2.155
58100.000			6.467			-2.156
58202.000			6.466			-2.155
58301.000			6.466			-2.155
58400.000			6.467			-2.156
58501.000			6.466			-2.155
58600.000			6.466			-2.155
58700.000			6.465			-2.155
58801.000			6.466			-2.155
58900.000			6.467			-2.156
59002.000			6.465			-2.155
59101.000			6.464			-2.155
59201.000			6.465			-2.155
59301.000			6.465			-2.155
59400.000			6.464			-2.155
59500.000			6.464			-2.155
59601.000			6.464			-2.155
59700.000			6.464			-2.155
59800.000			6.464			-2.155
59902.000			6.464			-2.155
60001.000			6.464			-2.155
60100.000			6.463			-2.154
60201.000			6.463			-2.154
60300.000			6.464			-2.155
60400.000			6.464			-2.155
60501.000			6.462			-2.154
60600.000			6.462			-2.154
60701.000			6.463			-2.154
60802.000			6.462			-2.154
60900.000			6.462			-2.154
61000.000			6.462			-2.154
61101.000			6.461			-2.154
61200.000			6.462			-2.154
61300.000			6.462			-2.154
61402.000			6.461			-2.154
61501.000			6.461			-2.154
61601.000			6.461			-2.154
61701.000			6.460			-2.153
61800.000			6.461			-2.154
61900.000			6.460			-2.153
62001.000			6.461			-2.154
62100.000			6.461			-2.154
62201.000			6.460			-2.153
62301.000			6.459			-2.153
62401.000			6.460			-2.153
62501.000			6.460			-2.153
62600.000			6.460			-2.153
62700.000			6.459			-2.153
62801.000			6.459			-2.153
62900.000			6.459			-2.153
63000.000			6.460			-2.153
63102.000			6.459			-2.153
63201.000			6.458			-2.153
63300.000			6.458			-2.153
63401.000			6.457			-2.152
63500.000			6.458			-2.153
63600.000			6.457			-2.152
63701.000			6.457			-2.152
63800.000			6.458			-2.153
63901.000			6.457			-2.152
64002.000			6.456			-2.152
64100.000			6.457			-2.152
64200.000			6.456			-2.152
64301.000			6.457			-2.152
64400.000			6.457			-2.152
64500.000			6.456			-2.152
64601.000			6.456			-2.152
64701.000			6.457			-2.152
64801.000			6.456			-2.152
64901.000			6.456			-2.152
65000.000			6.457			-2.152
65100.000			6.456			-2.152
65201.000			6.456			-2.152
65300.000			6.455			-2.152
65401.000			6.455			-2.152
65500.000			6.455			-2.152
65601.000			6.455			-2.152
65702.000			6.455			-2.152
65800.000			6.455			-2.152
65900.000			6.454			-2.151
66001.000			6.454			-2.151
66100.000			6.454			-2.151
66200.000			6.454			-2.151
66301.000			6.454			-2.151
66401.000			6.454			-2.151
66501.000			6.454			-2.151
66601.000			6.454			-2.151
66700.000			6.454			-2.151
66800.000			6.453			-2.151
66901.000			6.453			-2.151
67000.000			6.453			-2.151
67100.000			6.453			-2.151
67202.000			6.453			-2.151
67301.000			6.452			-2.151
67400.000			6.453			-2.151
67501.000			6.452			-2.151
67600.000			6.452			-2.151
67700.000			6.452			-2.151
67801.000			6.453			-2.151
67900.000			6.452			-2.151
68001.000			6.452			-2.151
68102.000			6.451			-2.150
68201.000			6.451			-2.150
68300.000			6.452			-2.151
68401.000			6.452			-2.151
68500.000			6.451			-2.150
68601.000			6.451			-2.150
68700.000			6.452			-2.151
68800.000			6.451			-2.150
68902.000			6.450			-2.150
69001.000			6.451			-2.150
69100.000			6.452			-2.151
69201.000			6.450			-2.150
69300.000			6.450			-2.150
69400.000			6.451			-2.150
69501.000			6.450			-2.150
69600.000			6.450			-2.150
69701.000			6.450			-2.150
69802.000			6.449			-2.150
69900.000			6.449			-2.150
70000.000			6.450			-2.150
70101.000			6.450			-2.150
70200.000			6.449			-2.150
70300.000			6.449			-2.150
70401.000			6.450			-2.150
70501.000			6.449			-2.150
70601.000			6.449			-2.150
70702.000			6.449			-2.150
70800.000			6.448			-2.149
70900.000			6.448			-2.149
71001.000			6.449			-2.150
71100.000			6.448			-2.149
71200.000			6.448			-2.149
71301.000			6.448			-2.149
71401.000			6.449			-2.150
71501.000			6.449			-2.150
71601.000			6.449			-2.150
71700.000			6.448			-2.149
71801.000			6.448			-2.149
71900.000			6.448			-2.149
72000.000			6.449			-2.150
72101.000			6.449			-2.150
72201.000			6.447			-2.149
72301.000			6.447			-2.149
72401.000			6.446			-2.149
72500.000			6.446			-2.149
72600.000			6.446			-2.149
72701.000			6.445			-2.148
72800.000			6.446			-2.149
72900.000			6.446			-2.149
73002.000			6.447			-2.149
73101.000			6.447			-2.149
73200.000			6.446			-2.149
73301.000			6.446			-2.149
73400.000			6.445			-2.148
73500.000			6.445			-2.148
73601.000			6.445			-2.148
73700.000			6.444			-2.148
73801.000			6.445			-2.148
73902.000			6.446			-2.149
