# Acquired on 26/01/2024 11:09:39 
# SPIDER: Creep_4mm_HM077x145x38AA-1
# CREEP MEASUREMENT

# time [ms]		force [N]		stiffness [N/mm]
0.000			-18.685			-4.671
104.000			-19.678			-4.919
205.000			-19.976			-4.994
303.000			-19.936			-4.984
404.000			-19.840			-4.960
505.000			-19.807			-4.952
604.000			-19.778			-4.944
704.000			-19.751			-4.938
805.000			-19.728			-4.932
904.000			-19.708			-4.927
1003.000			-19.687			-4.922
1105.000			-19.669			-4.917
1204.000			-19.636			-4.909
1304.000			-19.622			-4.906
1405.000			-19.609			-4.902
1503.000			-19.596			-4.899
1604.000			-19.582			-4.896
1705.000			-19.570			-4.893
1804.000			-19.559			-4.890
1904.000			-19.539			-4.885
2005.000			-19.529			-4.882
2104.000			-19.519			-4.880
2203.000			-19.509			-4.877
2305.000			-19.500			-4.875
2404.000			-19.491			-4.873
2504.000			-19.483			-4.871
2605.000			-19.468			-4.867
2704.000			-19.460			-4.865
2804.000			-19.452			-4.863
2904.000			-19.445			-4.861
3004.000			-19.437			-4.859
3104.000			-19.430			-4.858
3204.000			-19.424			-4.856
3304.000			-19.416			-4.854
3404.000			-19.405			-4.851
3504.000			-19.399			-4.850
3604.000			-19.392			-4.848
3705.000			-19.386			-4.846
3804.000			-19.381			-4.845
3904.000			-19.374			-4.844
4005.000			-19.369			-4.842
4103.000			-19.358			-4.840
4204.000			-19.353			-4.838
4305.000			-19.348			-4.837
4404.000			-19.343			-4.836
4504.000			-19.337			-4.834
4605.000			-19.332			-4.833
4704.000			-19.328			-4.832
4803.000			-19.319			-4.830
4905.000			-19.316			-4.829
5004.000			-19.310			-4.828
5104.000			-19.305			-4.826
5205.000			-19.301			-4.825
5303.000			-19.297			-4.824
5404.000			-19.293			-4.823
5505.000			-19.285			-4.821
5604.000			-19.280			-4.820
5704.000			-19.276			-4.819
5805.000			-19.271			-4.818
5904.000			-19.268			-4.817
6003.000			-19.265			-4.816
6105.000			-19.260			-4.815
6204.000			-19.256			-4.814
6304.000			-19.249			-4.812
6405.000			-19.246			-4.812
6504.000			-19.243			-4.811
6605.000			-19.239			-4.810
6703.000			-19.236			-4.809
6804.000			-19.232			-4.808
6905.000			-19.229			-4.807
7004.000			-19.222			-4.805
7104.000			-19.218			-4.804
7204.000			-19.215			-4.804
7304.000			-19.212			-4.803
7404.000			-19.209			-4.802
7505.000			-19.205			-4.801
7604.000			-19.203			-4.801
7704.000			-19.196			-4.799
7805.000			-19.193			-4.798
7903.000			-19.190			-4.797
8004.000			-19.188			-4.797
8105.000			-19.185			-4.796
8204.000			-19.181			-4.795
8304.000			-19.179			-4.795
8405.000			-19.176			-4.794
8504.000			-19.171			-4.793
8603.000			-19.168			-4.792
8705.000			-19.165			-4.791
8804.000			-19.162			-4.790
8904.000			-19.159			-4.790
9005.000			-19.157			-4.789
9104.000			-19.154			-4.789
9204.000			-19.149			-4.787
9304.000			-19.147			-4.787
9404.000			-19.144			-4.786
9504.000			-19.142			-4.785
9604.000			-19.139			-4.785
9704.000			-19.137			-4.784
9804.000			-19.135			-4.784
9904.000			-19.129			-4.782
10004.000			-19.126			-4.781
10105.000			-19.124			-4.781
10204.000			-19.123			-4.781
10304.000			-19.121			-4.780
10405.000			-19.118			-4.780
10503.000			-19.115			-4.779
10604.000			-19.111			-4.778
10705.000			-19.109			-4.777
10804.000			-19.107			-4.777
10904.000			-19.105			-4.776
11005.000			-19.104			-4.776
11104.000			-19.100			-4.775
11203.000			-19.097			-4.774
11305.000			-19.095			-4.774
11404.000			-19.091			-4.773
11504.000			-19.089			-4.772
11605.000			-19.087			-4.772
11704.000			-19.085			-4.771
11804.000			-19.083			-4.771
11904.000			-19.081			-4.770
12004.000			-19.079			-4.770
12104.000			-19.074			-4.769
12205.000			-19.072			-4.768
12304.000			-19.071			-4.768
12403.000			-19.070			-4.767
12505.000			-19.067			-4.767
12604.000			-19.064			-4.766
12704.000			-19.062			-4.766
12805.000			-19.058			-4.765
12904.000			-19.057			-4.764
13005.000			-19.056			-4.764
13103.000			-19.054			-4.763
13204.000			-19.052			-4.763
13305.000			-19.050			-4.762
13404.000			-19.048			-4.762
13504.000			-19.047			-4.762
13605.000			-19.042			-4.760
13704.000			-19.040			-4.760
13803.000			-19.038			-4.759
13905.000			-19.036			-4.759
14004.000			-19.034			-4.758
14104.000			-19.032			-4.758
14205.000			-19.030			-4.758
14304.000			-19.027			-4.757
14404.000			-19.026			-4.757
14504.000			-19.025			-4.756
14604.000			-19.023			-4.756
14704.000			-19.021			-4.755
14805.000			-19.018			-4.755
14904.000			-19.017			-4.754
15003.000			-19.014			-4.754
15105.000			-19.012			-4.753
15204.000			-19.011			-4.753
15304.000			-19.010			-4.752
15405.000			-19.008			-4.752
15504.000			-19.007			-4.752
15604.000			-19.004			-4.751
15704.000			-19.001			-4.750
15804.000			-19.000			-4.750
15904.000			-18.997			-4.749
16004.000			-18.996			-4.749
16104.000			-18.996			-4.749
16205.000			-18.994			-4.748
16304.000			-18.992			-4.748
16403.000			-18.991			-4.748
16505.000			-18.986			-4.747
16604.000			-18.984			-4.746
16704.000			-18.984			-4.746
16805.000			-18.983			-4.746
16904.000			-18.981			-4.745
17004.000			-18.980			-4.745
17104.000			-18.978			-4.745
17204.000			-18.974			-4.743
17303.000			-18.973			-4.743
17405.000			-18.972			-4.743
17504.000			-18.970			-4.743
17604.000			-18.970			-4.743
17705.000			-18.968			-4.742
17804.000			-18.966			-4.741
17904.000			-18.964			-4.741
18004.000			-18.962			-4.741
18104.000			-18.960			-4.740
18204.000			-18.960			-4.740
18305.000			-18.958			-4.740
18404.000			-18.957			-4.739
18504.000			-18.955			-4.739
18605.000			-18.953			-4.738
18703.000			-18.951			-4.738
18804.000			-18.949			-4.737
18905.000			-18.948			-4.737
19004.000			-18.947			-4.737
19104.000			-18.947			-4.737
19204.000			-18.945			-4.736
19304.000			-18.945			-4.736
19404.000			-18.941			-4.735
19504.000			-18.939			-4.735
19604.000			-18.938			-4.735
19705.000			-18.937			-4.734
19804.000			-18.935			-4.734
19904.000			-18.935			-4.734
20005.000			-18.934			-4.733
20103.000			-18.929			-4.732
20204.000			-18.929			-4.732
20305.000			-18.927			-4.732
20404.000			-18.927			-4.732
20504.000			-18.926			-4.732
20605.000			-18.925			-4.731
20704.000			-18.924			-4.731
20803.000			-18.921			-4.730
20905.000			-18.920			-4.730
21004.000			-18.919			-4.730
21104.000			-18.917			-4.729
21205.000			-18.916			-4.729
21304.000			-18.914			-4.729
21404.000			-18.913			-4.728
21504.000			-18.912			-4.728
21604.000			-18.908			-4.727
21704.000			-18.909			-4.727
21805.000			-18.908			-4.727
21904.000			-18.907			-4.727
22004.000			-18.906			-4.726
22105.000			-18.904			-4.726
22203.000			-18.902			-4.725
22304.000			-18.901			-4.725
22405.000			-18.899			-4.725
22504.000			-18.898			-4.724
22605.000			-18.897			-4.724
22704.000			-18.895			-4.724
22804.000			-18.893			-4.723
22904.000			-18.894			-4.723
23004.000			-18.891			-4.723
23104.000			-18.890			-4.723
23205.000			-18.889			-4.722
23304.000			-18.888			-4.722
23404.000			-18.888			-4.722
23505.000			-18.886			-4.721
23603.000			-18.884			-4.721
23704.000			-18.883			-4.721
23805.000			-18.881			-4.720
23904.000			-18.880			-4.720
24004.000			-18.879			-4.720
24105.000			-18.878			-4.720
24204.000			-18.877			-4.719
24303.000			-18.876			-4.719
24405.000			-18.874			-4.718
24504.000			-18.874			-4.718
24604.000			-18.873			-4.718
24705.000			-18.871			-4.718
24804.000			-18.870			-4.717
24904.000			-18.868			-4.717
25004.000			-18.867			-4.717
25104.000			-18.866			-4.716
25204.000			-18.864			-4.716
25305.000			-18.863			-4.716
25404.000			-18.862			-4.716
25504.000			-18.862			-4.715
25605.000			-18.861			-4.715
25703.000			-18.860			-4.715
25805.000			-18.858			-4.714
25904.000			-18.856			-4.714
26004.000			-18.855			-4.714
26105.000			-18.854			-4.714
26204.000			-18.853			-4.713
26304.000			-18.852			-4.713
26404.000			-18.850			-4.713
26504.000			-18.851			-4.713
26604.000			-18.850			-4.712
26705.000			-18.847			-4.712
26804.000			-18.847			-4.712
26904.000			-18.845			-4.711
27005.000			-18.844			-4.711
27103.000			-18.844			-4.711
27204.000			-18.843			-4.711
27305.000			-18.843			-4.711
27404.000			-18.841			-4.710
27504.000			-18.839			-4.710
27605.000			-18.838			-4.709
27704.000			-18.836			-4.709
27803.000			-18.836			-4.709
27905.000			-18.835			-4.709
28004.000			-18.834			-4.708
28104.000			-18.832			-4.708
28205.000			-18.832			-4.708
28304.000			-18.830			-4.708
28404.000			-18.829			-4.707
28504.000			-18.828			-4.707
28604.000			-18.827			-4.707
28704.000			-18.826			-4.706
28804.000			-18.825			-4.706
28904.000			-18.822			-4.706
29005.000			-18.821			-4.705
29104.000			-18.819			-4.705
29203.000			-18.819			-4.705
29305.000			-18.818			-4.705
29404.000			-18.817			-4.704
29504.000			-18.816			-4.704
29605.000			-18.814			-4.703
29704.000			-18.812			-4.703
29804.000			-18.812			-4.703
29904.000			-18.812			-4.703
30004.000			-18.812			-4.703
30104.000			-18.811			-4.703
30205.000			-18.809			-4.702
30304.000			-18.807			-4.702
30404.000			-18.807			-4.702
30505.000			-18.806			-4.702
30603.000			-18.805			-4.701
30704.000			-18.804			-4.701
30805.000			-18.804			-4.701
30904.000			-18.803			-4.701
31004.000			-18.802			-4.700
31104.000			-18.800			-4.700
31204.000			-18.799			-4.700
31303.000			-18.798			-4.700
31405.000			-18.797			-4.699
31504.000			-18.797			-4.699
31604.000			-18.796			-4.699
31705.000			-18.796			-4.699
31804.000			-18.794			-4.698
31904.000			-18.793			-4.698
32003.000			-18.793			-4.698
32104.000			-18.791			-4.698
32205.000			-18.790			-4.697
32304.000			-18.789			-4.697
32404.000			-18.788			-4.697
32505.000			-18.788			-4.697
32604.000			-18.787			-4.697
32703.000			-18.786			-4.697
32805.000			-18.785			-4.696
32904.000			-18.783			-4.696
33004.000			-18.782			-4.696
33105.000			-18.782			-4.695
33203.000			-18.782			-4.695
33304.000			-18.781			-4.695
33405.000			-18.780			-4.695
33504.000			-18.779			-4.695
33604.000			-18.779			-4.695
33705.000			-18.777			-4.694
33804.000			-18.778			-4.694
33903.000			-18.776			-4.694
34005.000			-18.773			-4.693
34104.000			-18.772			-4.693
34204.000			-18.772			-4.693
34305.000			-18.770			-4.693
34404.000			-18.770			-4.693
34504.000			-18.770			-4.693
34604.000			-18.770			-4.693
34704.000			-18.766			-4.692
34804.000			-18.766			-4.692
34905.000			-18.766			-4.692
35004.000			-18.765			-4.691
35104.000			-18.765			-4.691
35205.000			-18.764			-4.691
35303.000			-18.764			-4.691
35405.000			-18.761			-4.690
35504.000			-18.761			-4.690
35604.000			-18.759			-4.690
35705.000			-18.759			-4.690
35804.000			-18.759			-4.690
35904.000			-18.757			-4.689
36005.000			-18.758			-4.689
36104.000			-18.757			-4.689
36203.000			-18.755			-4.689
36305.000			-18.754			-4.688
36404.000			-18.754			-4.688
36504.000			-18.753			-4.688
36605.000			-18.753			-4.688
36704.000			-18.752			-4.688
36804.000			-18.750			-4.688
36904.000			-18.749			-4.687
37004.000			-18.748			-4.687
37104.000			-18.748			-4.687
37205.000			-18.747			-4.687
37304.000			-18.746			-4.687
37404.000			-18.745			-4.686
37505.000			-18.744			-4.686
37603.000			-18.743			-4.686
37704.000			-18.741			-4.685
37805.000			-18.741			-4.685
37904.000			-18.741			-4.685
38004.000			-18.740			-4.685
38104.000			-18.740			-4.685
38204.000			-18.739			-4.685
38303.000			-18.737			-4.684
38405.000			-18.736			-4.684
38504.000			-18.736			-4.684
38605.000			-18.735			-4.684
38704.000			-18.734			-4.684
38804.000			-18.734			-4.684
38905.000			-18.734			-4.683
39003.000			-18.732			-4.683
39104.000			-18.731			-4.683
39205.000			-18.729			-4.682
39304.000			-18.728			-4.682
39404.000			-18.729			-4.682
39505.000			-18.729			-4.682
39604.000			-18.727			-4.682
39703.000			-18.727			-4.682
39805.000			-18.725			-4.681
39904.000			-18.725			-4.681
40004.000			-18.725			-4.681
40105.000			-18.723			-4.681
40204.000			-18.723			-4.681
40304.000			-18.723			-4.681
40404.000			-18.721			-4.680
40504.000			-18.721			-4.680
40604.000			-18.720			-4.680
40705.000			-18.718			-4.680
40804.000			-18.718			-4.679
40903.000			-18.717			-4.679
41005.000			-18.717			-4.679
41104.000			-18.717			-4.679
41204.000			-18.716			-4.679
41305.000			-18.715			-4.679
41404.000			-18.714			-4.678
41504.000			-18.712			-4.678
41603.000			-18.712			-4.678
41704.000			-18.712			-4.678
41805.000			-18.710			-4.678
41904.000			-18.710			-4.677
42004.000			-18.709			-4.677
42105.000			-18.707			-4.677
42204.000			-18.707			-4.677
42303.000			-18.707			-4.677
42405.000			-18.707			-4.677
42504.000			-18.707			-4.677
42604.000			-18.706			-4.677
42705.000			-18.705			-4.676
42804.000			-18.704			-4.676
42904.000			-18.703			-4.676
43004.000			-18.702			-4.676
43104.000			-18.701			-4.675
43204.000			-18.701			-4.675
43305.000			-18.701			-4.675
43404.000			-18.699			-4.675
43504.000			-18.699			-4.675
43605.000			-18.698			-4.674
43703.000			-18.697			-4.674
43804.000			-18.698			-4.674
43905.000			-18.697			-4.674
44004.000			-18.695			-4.674
44104.000			-18.696			-4.674
44205.000			-18.694			-4.673
44304.000			-18.693			-4.673
44403.000			-18.692			-4.673
44505.000			-18.690			-4.673
44604.000			-18.692			-4.673
44704.000			-18.691			-4.673
44805.000			-18.690			-4.672
44904.000			-18.690			-4.672
45005.000			-18.687			-4.672
45103.000			-18.687			-4.672
45204.000			-18.687			-4.672
45305.000			-18.685			-4.671
45404.000			-18.685			-4.671
45504.000			-18.686			-4.671
45605.000			-18.683			-4.671
45704.000			-18.682			-4.671
45803.000			-18.682			-4.671
45905.000			-18.682			-4.670
46004.000			-18.681			-4.670
46104.000			-18.681			-4.670
46205.000			-18.680			-4.670
46304.000			-18.680			-4.670
46404.000			-18.679			-4.670
46504.000			-18.679			-4.670
46604.000			-18.678			-4.669
46704.000			-18.677			-4.669
46805.000			-18.677			-4.669
46904.000			-18.676			-4.669
47004.000			-18.676			-4.669
47105.000			-18.674			-4.669
47203.000			-18.675			-4.669
47304.000			-18.674			-4.668
47405.000			-18.673			-4.668
47504.000			-18.672			-4.668
47604.000			-18.672			-4.668
47705.000			-18.671			-4.668
47804.000			-18.669			-4.667
47903.000			-18.669			-4.667
48005.000			-18.668			-4.667
48103.000			-18.667			-4.667
48205.000			-18.667			-4.667
48304.000			-18.666			-4.666
48404.000			-18.665			-4.666
48505.000			-18.664			-4.666
48604.000			-18.664			-4.666
48704.000			-18.664			-4.666
48804.000			-18.663			-4.666
48904.000			-18.662			-4.666
49004.000			-18.661			-4.665
49105.000			-18.661			-4.665
49204.000			-18.660			-4.665
49304.000			-18.660			-4.665
49405.000			-18.658			-4.665
49503.000			-18.656			-4.664
49604.000			-18.657			-4.664
49705.000			-18.657			-4.664
49804.000			-18.657			-4.664
49904.000			-18.656			-4.664
50005.000			-18.654			-4.664
50104.000			-18.654			-4.664
50203.000			-18.654			-4.663
50305.000			-18.653			-4.663
50404.000			-18.652			-4.663
50504.000			-18.652			-4.663
50605.000			-18.652			-4.663
50704.000			-18.651			-4.663
50804.000			-18.651			-4.663
50904.000			-18.651			-4.663
51004.000			-18.650			-4.663
51104.000			-18.649			-4.662
51204.000			-18.649			-4.662
51304.000			-18.648			-4.662
51405.000			-18.648			-4.662
51504.000			-18.646			-4.661
51603.000			-18.645			-4.661
51705.000			-18.645			-4.661
51804.000			-18.645			-4.661
51904.000			-18.644			-4.661
52005.000			-18.643			-4.661
52104.000			-18.642			-4.661
52204.000			-18.642			-4.661
52304.000			-18.641			-4.660
52404.000			-18.641			-4.660
52504.000			-18.641			-4.660
52605.000			-18.640			-4.660
52704.000			-18.638			-4.660
52803.000			-18.639			-4.660
52905.000			-18.638			-4.659
53004.000			-18.637			-4.659
53104.000			-18.637			-4.659
53205.000			-18.637			-4.659
53304.000			-18.637			-4.659
53404.000			-18.636			-4.659
53504.000			-18.635			-4.659
53604.000			-18.633			-4.658
53704.000			-18.633			-4.658
53805.000			-18.633			-4.658
53904.000			-18.634			-4.658
54004.000			-18.634			-4.658
54105.000			-18.633			-4.658
54203.000			-18.631			-4.658
54304.000			-18.631			-4.658
54405.000			-18.629			-4.657
54504.000			-18.629			-4.657
54605.000			-18.627			-4.657
54704.000			-18.626			-4.657
54804.000			-18.627			-4.657
54904.000			-18.627			-4.657
55004.000			-18.626			-4.656
55104.000			-18.623			-4.656
55205.000			-18.622			-4.655
55304.000			-18.622			-4.655
55404.000			-18.622			-4.655
55505.000			-18.620			-4.655
55603.000			-18.620			-4.655
55704.000			-18.621			-4.655
55805.000			-18.619			-4.655
55904.000			-18.617			-4.654
56004.000			-18.617			-4.654
56105.000			-18.617			-4.654
56204.000			-18.616			-4.654
56303.000			-18.616			-4.654
56405.000			-18.615			-4.654
56504.000			-18.615			-4.654
56604.000			-18.614			-4.653
56705.000			-18.613			-4.653
56804.000			-18.612			-4.653
56904.000			-18.612			-4.653
57004.000			-18.612			-4.653
57104.000			-18.611			-4.653
57204.000			-18.611			-4.653
57305.000			-18.610			-4.653
57404.000			-18.610			-4.652
57504.000			-18.608			-4.652
57605.000			-18.608			-4.652
57703.000			-18.608			-4.652
57805.000			-18.609			-4.652
57904.000			-18.608			-4.652
58004.000			-18.606			-4.652
58105.000			-18.607			-4.652
58204.000			-18.607			-4.652
58304.000			-18.607			-4.652
58404.000			-18.606			-4.651
58504.000			-18.605			-4.651
58604.000			-18.605			-4.651
58705.000			-18.605			-4.651
58804.000			-18.604			-4.651
58904.000			-18.604			-4.651
59005.000			-18.604			-4.651
59103.000			-18.602			-4.651
59204.000			-18.602			-4.650
59305.000			-18.602			-4.651
59404.000			-18.602			-4.650
59504.000			-18.601			-4.650
59605.000			-18.602			-4.650
59704.000			-18.601			-4.650
59803.000			-18.600			-4.650
59905.000			-18.599			-4.650
60004.000			-18.600			-4.650
60104.000			-18.599			-4.650
60205.000			-18.598			-4.649
60304.000			-18.598			-4.649
60404.000			-18.597			-4.649
60504.000			-18.595			-4.649
60604.000			-18.595			-4.649
60704.000			-18.595			-4.649
60804.000			-18.594			-4.649
60904.000			-18.594			-4.648
61005.000			-18.594			-4.648
61104.000			-18.593			-4.648
61203.000			-18.594			-4.648
61305.000			-18.593			-4.648
61404.000			-18.591			-4.648
61504.000			-18.591			-4.648
61605.000			-18.590			-4.648
61704.000			-18.590			-4.648
61804.000			-18.590			-4.648
61904.000			-18.590			-4.647
62004.000			-18.589			-4.647
62104.000			-18.588			-4.647
62205.000			-18.588			-4.647
62304.000			-18.587			-4.647
62404.000			-18.587			-4.647
62505.000			-18.587			-4.647
62603.000			-18.586			-4.647
62704.000			-18.585			-4.646
62805.000			-18.584			-4.646
62904.000			-18.584			-4.646
63004.000			-18.584			-4.646
63105.000			-18.583			-4.646
63204.000			-18.582			-4.646
63303.000			-18.582			-4.646
63405.000			-18.582			-4.645
63504.000			-18.581			-4.645
63604.000			-18.581			-4.645
63705.000			-18.581			-4.645
63804.000			-18.580			-4.645
63904.000			-18.579			-4.645
64003.000			-18.579			-4.645
64104.000			-18.578			-4.645
64205.000			-18.578			-4.645
64304.000			-18.578			-4.645
64404.000			-18.577			-4.644
64505.000			-18.576			-4.644
64604.000			-18.575			-4.644
64703.000			-18.575			-4.644
64805.000			-18.575			-4.644
64904.000			-18.575			-4.644
65004.000			-18.574			-4.643
65105.000			-18.573			-4.643
65204.000			-18.572			-4.643
65304.000			-18.572			-4.643
65404.000			-18.571			-4.643
65504.000			-18.571			-4.643
65604.000			-18.570			-4.642
65705.000			-18.570			-4.642
65804.000			-18.569			-4.642
65904.000			-18.570			-4.642
66005.000			-18.570			-4.642
66103.000			-18.568			-4.642
66204.000			-18.567			-4.642
66305.000			-18.568			-4.642
66404.000			-18.568			-4.642
66504.000			-18.567			-4.642
66605.000			-18.566			-4.641
66704.000			-18.566			-4.641
66803.000			-18.566			-4.641
66905.000			-18.565			-4.641
67004.000			-18.564			-4.641
67104.000			-18.562			-4.641
67205.000			-18.562			-4.641
67304.000			-18.563			-4.641
67405.000			-18.563			-4.641
67503.000			-18.562			-4.640
67604.000			-18.561			-4.640
67705.000			-18.560			-4.640
67804.000			-18.559			-4.640
67904.000			-18.560			-4.640
68005.000			-18.560			-4.640
68104.000			-18.559			-4.640
68203.000			-18.559			-4.640
68305.000			-18.559			-4.640
68404.000			-18.558			-4.639
68504.000			-18.558			-4.639
68605.000			-18.557			-4.639
68704.000			-18.557			-4.639
