# Acquired on 10/01/2024 18:10:27 
# SPIDER: Creep_-2mm_07714532C-1
# CREEP MEASUREMENT

# time [ms]		force [N]		stiffness [N/mm]
1.000			1.689			-0.845
101.000			2.040			-1.020
201.000			2.191			-1.095
300.000			2.210			-1.105
400.000			2.197			-1.099
501.000			2.181			-1.091
600.000			2.175			-1.088
701.000			2.169			-1.085
802.000			2.165			-1.082
900.000			2.161			-1.081
1000.000			2.157			-1.079
1101.000			2.154			-1.077
1200.000			2.148			-1.074
1300.000			2.145			-1.073
1402.000			2.142			-1.071
1501.000			2.141			-1.070
1600.000			2.139			-1.069
1701.000			2.137			-1.069
1800.000			2.135			-1.068
1900.000			2.131			-1.065
2001.000			2.130			-1.065
2100.000			2.128			-1.064
2201.000			2.127			-1.063
2302.000			2.126			-1.063
2400.000			2.124			-1.062
2500.000			2.122			-1.061
2601.000			2.121			-1.060
2700.000			2.118			-1.059
2801.000			2.118			-1.059
2901.000			2.117			-1.058
3001.000			2.115			-1.058
3101.000			2.114			-1.057
3200.000			2.113			-1.056
3300.000			2.111			-1.056
3401.000			2.110			-1.055
3500.000			2.109			-1.054
3600.000			2.107			-1.054
3702.000			2.106			-1.053
3800.000			2.107			-1.053
3900.000			2.106			-1.053
4001.000			2.105			-1.052
4100.000			2.103			-1.051
4200.000			2.102			-1.051
4301.000			2.101			-1.051
4401.000			2.102			-1.051
4501.000			2.102			-1.051
4601.000			2.101			-1.050
4700.000			2.100			-1.050
4800.000			17.567			-8.783
4977.000			2.097			-1.049
5065.000			2.095			-1.048
5153.000			2.095			-1.048
5240.000			2.096			-1.048
5328.000			2.094			-1.047
5416.000			2.093			-1.046
5504.000			2.093			-1.046
5600.000			2.092			-1.046
5701.000			2.091			-1.046
5802.000			2.091			-1.046
5900.000			2.090			-1.045
6001.000			2.090			-1.045
6100.000			2.090			-1.045
6200.000			2.090			-1.045
6301.000			2.089			-1.044
6400.000			2.088			-1.044
6501.000			2.088			-1.044
6602.000			2.087			-1.044
6700.000			2.086			-1.043
6800.000			2.086			-1.043
6901.000			2.086			-1.043
7000.000			2.085			-1.042
7100.000			2.085			-1.042
7201.000			2.084			-1.042
7301.000			2.083			-1.042
7401.000			2.083			-1.041
7501.000			2.082			-1.041
7600.000			2.081			-1.041
7700.000			2.081			-1.041
7801.000			2.081			-1.040
7900.000			2.081			-1.040
8001.000			2.081			-1.040
8102.000			2.080			-1.040
8200.000			2.080			-1.040
8300.000			2.080			-1.040
8401.000			2.080			-1.040
8500.000			2.078			-1.039
8600.000			2.078			-1.039
8701.000			2.078			-1.039
8801.000			2.077			-1.039
8901.000			2.078			-1.039
9001.000			2.076			-1.038
9100.000			2.076			-1.038
9201.000			2.076			-1.038
9300.000			2.075			-1.037
9400.000			2.074			-1.037
9502.000			2.074			-1.037
9601.000			2.074			-1.037
9700.000			2.075			-1.038
9801.000			2.074			-1.037
9900.000			2.072			-1.036
10000.000			2.072			-1.036
10101.000			2.072			-1.036
10200.000			2.073			-1.036
10301.000			2.073			-1.036
10402.000			2.072			-1.036
10500.000			2.072			-1.036
10600.000			2.071			-1.036
10701.000			2.071			-1.036
10800.000			2.071			-1.035
10900.000			2.069			-1.035
11001.000			2.069			-1.035
11101.000			2.069			-1.035
11201.000			2.068			-1.034
11301.000			2.069			-1.034
11400.000			2.068			-1.034
11500.000			2.068			-1.034
11601.000			2.068			-1.034
11700.000			2.068			-1.034
11800.000			2.067			-1.033
11902.000			2.066			-1.033
12001.000			2.067			-1.033
12100.000			2.066			-1.033
12201.000			2.066			-1.033
12300.000			2.066			-1.033
12401.000			2.065			-1.033
12500.000			2.065			-1.033
12601.000			2.066			-1.033
12702.000			2.065			-1.032
12800.000			2.064			-1.032
12900.000			2.064			-1.032
13001.000			2.064			-1.032
13100.000			2.064			-1.032
13200.000			2.063			-1.031
13301.000			2.062			-1.031
13401.000			2.062			-1.031
13501.000			2.062			-1.031
13601.000			2.061			-1.031
13700.000			2.061			-1.030
13800.000			2.062			-1.031
13901.000			2.062			-1.031
14000.000			2.062			-1.031
14100.000			2.061			-1.030
14202.000			2.059			-1.030
14301.000			2.059			-1.030
14400.000			2.060			-1.030
14501.000			2.060			-1.030
14600.000			2.059			-1.030
14700.000			2.058			-1.029
14801.000			2.058			-1.029
14901.000			2.059			-1.030
15001.000			2.059			-1.029
15101.000			2.057			-1.029
15200.000			2.057			-1.029
15300.000			2.057			-1.029
15401.000			2.056			-1.028
15500.000			2.057			-1.028
15601.000			2.057			-1.028
15701.000			2.056			-1.028
15801.000			2.056			-1.028
15901.000			2.056			-1.028
16000.000			2.057			-1.029
16100.000			2.057			-1.029
16201.000			2.057			-1.028
16300.000			2.056			-1.028
16400.000			2.057			-1.028
16502.000			2.055			-1.027
16601.000			2.054			-1.027
16700.000			2.055			-1.028
16801.000			2.055			-1.027
16900.000			2.055			-1.027
17000.000			2.055			-1.028
17101.000			2.056			-1.028
17200.000			2.054			-1.027
17301.000			2.054			-1.027
17402.000			2.054			-1.027
17500.000			2.054			-1.027
17600.000			2.054			-1.027
17701.000			2.055			-1.028
17800.000			2.054			-1.027
17900.000			2.053			-1.026
18001.000			2.053			-1.027
18101.000			2.054			-1.027
18201.000			2.053			-1.026
18301.000			2.052			-1.026
18400.000			2.053			-1.026
18500.000			2.052			-1.026
18601.000			2.052			-1.026
18700.000			2.052			-1.026
18802.000			2.052			-1.026
18901.000			2.052			-1.026
19000.000			2.052			-1.026
19101.000			2.051			-1.025
19200.000			2.051			-1.026
19300.000			2.052			-1.026
19401.000			2.050			-1.025
19500.000			2.052			-1.026
19601.000			2.052			-1.026
19702.000			2.050			-1.025
19800.000			2.049			-1.025
19900.000			2.049			-1.024
20001.000			2.050			-1.025
20100.000			2.050			-1.025
20200.000			2.049			-1.024
20301.000			2.049			-1.025
20401.000			2.049			-1.024
20501.000			2.048			-1.024
20601.000			2.048			-1.024
20700.000			2.048			-1.024
20800.000			2.048			-1.024
20901.000			2.048			-1.024
21000.000			2.048			-1.024
21100.000			2.048			-1.024
21202.000			2.048			-1.024
21301.000			2.047			-1.024
21400.000			2.048			-1.024
21501.000			2.048			-1.024
21600.000			2.047			-1.023
21700.000			2.046			-1.023
21801.000			2.047			-1.023
21901.000			2.047			-1.023
22002.000			2.046			-1.023
22101.000			2.046			-1.023
22200.000			2.047			-1.024
22301.000			2.046			-1.023
22400.000			2.045			-1.023
22500.000			2.045			-1.023
22601.000			2.045			-1.022
22701.000			2.044			-1.022
22801.000			2.045			-1.022
22901.000			2.045			-1.023
23000.000			2.045			-1.023
23100.000			2.045			-1.023
23201.000			2.045			-1.023
23300.000			2.045			-1.022
23400.000			2.045			-1.022
23502.000			2.045			-1.022
23601.000			2.044			-1.022
23700.000			2.044			-1.022
23801.000			2.044			-1.022
23900.000			2.044			-1.022
24000.000			2.045			-1.022
24101.000			2.044			-1.022
24200.000			2.044			-1.022
24301.000			2.044			-1.022
24402.000			2.044			-1.022
24500.000			2.043			-1.021
24600.000			2.043			-1.022
24701.000			2.044			-1.022
24800.000			2.043			-1.022
24900.000			2.043			-1.022
25002.000			2.043			-1.022
25101.000			2.043			-1.022
25201.000			2.042			-1.021
25300.000			2.043			-1.021
25400.000			2.043			-1.022
25501.000			2.042			-1.021
25600.000			2.042			-1.021
25700.000			2.042			-1.021
25802.000			2.043			-1.021
25901.000			2.040			-1.020
26000.000			2.041			-1.020
26101.000			2.042			-1.021
26200.000			2.041			-1.020
26300.000			2.041			-1.020
26401.000			2.041			-1.021
26500.000			2.041			-1.020
26601.000			2.040			-1.020
26702.000			2.041			-1.020
26800.000			2.041			-1.020
26900.000			2.040			-1.020
27001.000			2.041			-1.020
27100.000			2.041			-1.021
27200.000			2.041			-1.021
27302.000			2.041			-1.020
27401.000			2.039			-1.020
27500.000			2.039			-1.019
27601.000			2.040			-1.020
27700.000			2.040			-1.020
27800.000			2.040			-1.020
27901.000			2.040			-1.020
28000.000			2.039			-1.020
28101.000			2.039			-1.019
28202.000			2.039			-1.020
28300.000			2.040			-1.020
28401.000			2.039			-1.020
28500.000			2.039			-1.019
28600.000			2.038			-1.019
28701.000			2.038			-1.019
28800.000			2.039			-1.019
28901.000			2.039			-1.019
29002.000			2.039			-1.019
29100.000			2.038			-1.019
29200.000			2.037			-1.019
29301.000			2.038			-1.019
29400.000			2.038			-1.019
29500.000			2.038			-1.019
29601.000			2.037			-1.018
29701.000			2.038			-1.019
29801.000			2.037			-1.019
29901.000			2.037			-1.019
30000.000			2.037			-1.019
30100.000			2.037			-1.018
30201.000			2.036			-1.018
30300.000			2.037			-1.019
30400.000			2.037			-1.019
30502.000			2.036			-1.018
30601.000			2.036			-1.018
30700.000			2.036			-1.018
30801.000			2.035			-1.018
30900.000			2.035			-1.018
31000.000			2.036			-1.018
31101.000			2.035			-1.017
31201.000			2.034			-1.017
31301.000			2.035			-1.018
31401.000			2.035			-1.018
31500.000			2.036			-1.018
31601.000			2.035			-1.018
31700.000			2.035			-1.017
31800.000			2.036			-1.018
31901.000			2.036			-1.018
32001.000			2.035			-1.017
32101.000			2.035			-1.017
32201.000			2.035			-1.017
32300.000			2.034			-1.017
32400.000			2.034			-1.017
32501.000			2.034			-1.017
32600.000			2.034			-1.017
32700.000			2.033			-1.017
32802.000			2.035			-1.017
32901.000			2.035			-1.017
33000.000			2.034			-1.017
33101.000			2.034			-1.017
33200.000			2.034			-1.017
33300.000			2.033			-1.017
33401.000			2.034			-1.017
33501.000			2.034			-1.017
33601.000			2.034			-1.017
33701.000			2.034			-1.017
33800.000			2.034			-1.017
33900.000			2.034			-1.017
34001.000			2.034			-1.017
34100.000			2.034			-1.017
34200.000			2.034			-1.017
34302.000			2.033			-1.017
34401.000			2.034			-1.017
34500.000			2.034			-1.017
34601.000			2.033			-1.016
34700.000			2.032			-1.016
34801.000			2.032			-1.016
34900.000			2.032			-1.016
35001.000			2.032			-1.016
35102.000			2.032			-1.016
35200.000			2.033			-1.016
35300.000			2.032			-1.016
35401.000			2.032			-1.016
35500.000			2.031			-1.016
35600.000			2.031			-1.016
35701.000			2.032			-1.016
35801.000			2.032			-1.016
35901.000			2.032			-1.016
36001.000			2.032			-1.016
36100.000			2.032			-1.016
36200.000			2.032			-1.016
36301.000			2.031			-1.016
36400.000			2.031			-1.016
36500.000			2.030			-1.015
36602.000			2.031			-1.015
36701.000			2.031			-1.015
36800.000			2.030			-1.015
36901.000			2.030			-1.015
37000.000			2.031			-1.015
37100.000			2.031			-1.015
37201.000			2.031			-1.016
37300.000			2.030			-1.015
37401.000			2.030			-1.015
37502.000			2.031			-1.015
37600.000			2.030			-1.015
37700.000			2.030			-1.015
37801.000			2.030			-1.015
37900.000			2.030			-1.015
38001.000			2.030			-1.015
38101.000			2.030			-1.015
38201.000			2.029			-1.015
38302.000			2.028			-1.014
38400.000			2.029			-1.014
38500.000			2.029			-1.015
38601.000			2.030			-1.015
38700.000			2.029			-1.014
38800.000			2.028			-1.014
38902.000			2.029			-1.014
39001.000			2.029			-1.014
39100.000			2.029			-1.014
39201.000			2.029			-1.014
39300.000			2.029			-1.014
39400.000			2.029			-1.015
39501.000			2.028			-1.014
39600.000			2.027			-1.014
39701.000			2.028			-1.014
39802.000			2.028			-1.014
39901.000			2.028			-1.014
40000.000			2.027			-1.014
40101.000			2.028			-1.014
40200.000			2.029			-1.015
40300.000			2.029			-1.014
40401.000			2.027			-1.013
40501.000			2.027			-1.014
40601.000			2.027			-1.014
40701.000			2.027			-1.013
40800.000			2.026			-1.013
40900.000			2.027			-1.013
41001.000			2.028			-1.014
41100.000			2.028			-1.014
41201.000			2.027			-1.014
41301.000			2.027			-1.014
41401.000			2.027			-1.014
41501.000			2.027			-1.013
41600.000			2.027			-1.014
41700.000			2.027			-1.013
41801.000			2.028			-1.014
41900.000			2.026			-1.013
42001.000			2.027			-1.013
42102.000			2.027			-1.014
42200.000			2.026			-1.013
42300.000			2.027			-1.013
42401.000			2.027			-1.013
42500.000			2.027			-1.014
42600.000			2.026			-1.013
42701.000			2.026			-1.013
42801.000			2.026			-1.013
42901.000			2.027			-1.014
43001.000			2.027			-1.013
43100.000			2.026			-1.013
43200.000			2.026			-1.013
43301.000			2.026			-1.013
43400.000			2.027			-1.014
43500.000			2.027			-1.014
43602.000			2.026			-1.013
43701.000			2.026			-1.013
43800.000			2.027			-1.013
43901.000			2.027			-1.013
44000.000			2.027			-1.014
44100.000			2.025			-1.013
44201.000			2.025			-1.012
44301.000			2.025			-1.013
44402.000			2.025			-1.013
44500.000			2.025			-1.013
44600.000			2.025			-1.013
44701.000			2.026			-1.013
44800.000			2.026			-1.013
44900.000			2.025			-1.012
45001.000			2.026			-1.013
45101.000			2.026			-1.013
45201.000			2.025			-1.013
45301.000			2.025			-1.012
45400.000			2.025			-1.012
45500.000			2.025			-1.012
45601.000			2.025			-1.013
45700.000			2.024			-1.012
45800.000			2.024			-1.012
45902.000			2.025			-1.012
46001.000			2.025			-1.013
46100.000			2.026			-1.013
46201.000			2.025			-1.013
46300.000			2.025			-1.013
46400.000			2.026			-1.013
46501.000			2.026			-1.013
46601.000			2.026			-1.013
46701.000			2.024			-1.012
46801.000			2.024			-1.012
46900.000			2.024			-1.012
47000.000			2.025			-1.012
47101.000			2.025			-1.012
47200.000			2.025			-1.012
47300.000			2.025			-1.012
47402.000			2.025			-1.012
47501.000			2.025			-1.012
47601.000			2.026			-1.013
47700.000			2.024			-1.012
47800.000			2.024			-1.012
47901.000			2.024			-1.012
48000.000			2.024			-1.012
48100.000			2.024			-1.012
48202.000			2.025			-1.013
48301.000			2.025			-1.013
48400.000			2.023			-1.012
48501.000			2.024			-1.012
48600.000			2.024			-1.012
48700.000			2.023			-1.011
48801.000			2.022			-1.011
48900.000			2.023			-1.012
49001.000			2.023			-1.011
49102.000			2.024			-1.012
49200.000			2.024			-1.012
49300.000			2.024			-1.012
49401.000			2.023			-1.012
49500.000			2.024			-1.012
49600.000			2.024			-1.012
49701.000			2.023			-1.011
49801.000			2.024			-1.012
49901.000			2.023			-1.012
50001.000			2.023			-1.012
50100.000			2.024			-1.012
50200.000			2.024			-1.012
50301.000			2.023			-1.011
50400.000			2.023			-1.012
50501.000			2.023			-1.011
50602.000			2.023			-1.012
50700.000			2.023			-1.011
50801.000			2.023			-1.011
50900.000			2.023			-1.011
51000.000			2.022			-1.011
51101.000			2.023			-1.012
51200.000			2.023			-1.012
51301.000			2.023			-1.012
51402.000			2.023			-1.011
51500.000			2.023			-1.011
51600.000			2.023			-1.011
51701.000			2.022			-1.011
51800.000			2.022			-1.011
51900.000			2.022			-1.011
52002.000			2.021			-1.011
52101.000			2.022			-1.011
52200.000			2.022			-1.011
52301.000			2.022			-1.011
52400.000			2.021			-1.011
52500.000			2.022			-1.011
52601.000			2.023			-1.012
52700.000			2.021			-1.011
52801.000			2.023			-1.012
52902.000			2.023			-1.011
53000.000			2.022			-1.011
53100.000			2.021			-1.011
53201.000			2.021			-1.011
53300.000			2.022			-1.011
53400.000			2.022			-1.011
53502.000			2.021			-1.011
53601.000			2.022			-1.011
53700.000			2.021			-1.011
53801.000			2.021			-1.011
53900.000			2.021			-1.011
54001.000			2.021			-1.011
54100.000			2.020			-1.010
54200.000			2.021			-1.010
54302.000			2.022			-1.011
54401.000			2.022			-1.011
54500.000			2.021			-1.011
54601.000			2.021			-1.011
54700.000			2.020			-1.010
54800.000			2.021			-1.010
54901.000			2.021			-1.011
55001.000			2.020			-1.010
55101.000			2.020			-1.010
55201.000			2.021			-1.010
55300.000			2.021			-1.010
55400.000			2.020			-1.010
55501.000			2.019			-1.010
55600.000			2.019			-1.009
55700.000			2.020			-1.010
55802.000			2.020			-1.010
55901.000			2.019			-1.010
56000.000			2.019			-1.009
56101.000			2.019			-1.010
56200.000			2.020			-1.010
56300.000			2.021			-1.010
56401.000			2.019			-1.009
56500.000			2.019			-1.010
56601.000			2.019			-1.010
56702.000			2.019			-1.009
56800.000			2.019			-1.010
56900.000			2.018			-1.009
57001.000			2.018			-1.009
57100.000			2.019			-1.009
57201.000			2.019			-1.009
57300.000			2.019			-1.009
57401.000			2.019			-1.009
57502.000			2.019			-1.009
57600.000			2.019			-1.010
57700.000			2.019			-1.009
57801.000			2.020			-1.010
57900.000			2.018			-1.009
58000.000			2.018			-1.009
58101.000			2.017			-1.009
58201.000			2.018			-1.009
58301.000			2.019			-1.010
58401.000			2.019			-1.009
58500.000			2.018			-1.009
58600.000			2.019			-1.010
58701.000			2.019			-1.010
58800.000			2.019			-1.009
58900.000			2.019			-1.009
59002.000			2.018			-1.009
59101.000			2.018			-1.009
59200.000			2.018			-1.009
59301.000			2.018			-1.009
59400.000			2.018			-1.009
59500.000			2.018			-1.009
59601.000			2.018			-1.009
59701.000			2.019			-1.010
59801.000			2.019			-1.010
59902.000			2.019			-1.009
60000.000			2.019			-1.010
60100.000			2.020			-1.010
60201.000			2.019			-1.010
60300.000			2.018			-1.009
60401.000			2.018			-1.009
60501.000			2.018			-1.009
60601.000			2.018			-1.009
60701.000			2.019			-1.010
60800.000			2.019			-1.009
60900.000			2.019			-1.010
61001.000			2.018			-1.009
61100.000			2.017			-1.009
61200.000			2.018			-1.009
61302.000			2.018			-1.009
61401.000			2.018			-1.009
61500.000			2.017			-1.009
61601.000			2.018			-1.009
61700.000			2.018			-1.009
61800.000			2.018			-1.009
61901.000			2.017			-1.009
62001.000			2.016			-1.008
62101.000			2.018			-1.009
62202.000			2.019			-1.009
62300.000			2.017			-1.009
62400.000			2.017			-1.009
62501.000			2.018			-1.009
62600.000			2.017			-1.009
62700.000			2.018			-1.009
62802.000			2.018			-1.009
62901.000			2.018			-1.009
63000.000			2.018			-1.009
63101.000			2.016			-1.008
63200.000			2.016			-1.008
63300.000			2.017			-1.008
63401.000			2.017			-1.008
63500.000			2.017			-1.009
63602.000			2.017			-1.008
63701.000			2.018			-1.009
63800.000			2.018			-1.009
63901.000			2.018			-1.009
64000.000			2.017			-1.009
64100.000			2.016			-1.008
64201.000			2.016			-1.008
64300.000			2.016			-1.008
64401.000			2.017			-1.008
64502.000			2.016			-1.008
64600.000			2.016			-1.008
64700.000			2.016			-1.008
64801.000			2.016			-1.008
64900.000			2.016			-1.008
65000.000			2.015			-1.008
65101.000			2.016			-1.008
65201.000			2.016			-1.008
65301.000			2.016			-1.008
65401.000			2.016			-1.008
65500.000			2.017			-1.008
65600.000			2.017			-1.008
65701.000			2.017			-1.008
65800.000			2.015			-1.008
65901.000			2.016			-1.008
66002.000			2.016			-1.008
66100.000			2.016			-1.008
66200.000			2.016			-1.008
66301.000			2.016			-1.008
66400.000			2.017			-1.008
66500.000			2.016			-1.008
66601.000			2.016			-1.008
66701.000			2.017			-1.008
66802.000			2.016			-1.008
66900.000			2.016			-1.008
67000.000			2.016			-1.008
67101.000			2.016			-1.008
67200.000			2.015			-1.008
67300.000			2.016			-1.008
67401.000			2.015			-1.008
67501.000			2.015			-1.008
67601.000			2.016			-1.008
67701.000			2.016			-1.008
67800.000			2.015			-1.007
67900.000			2.016			-1.008
68001.000			2.016			-1.008
68100.000			2.016			-1.008
68200.000			2.016			-1.008
68302.000			2.016			-1.008
68401.000			2.016			-1.008
68500.000			2.016			-1.008
68601.000			2.016			-1.008
68700.000			2.015			-1.008
68800.000			2.015			-1.007
68901.000			2.014			-1.007
69000.000			2.015			-1.007
69101.000			2.015			-1.008
69202.000			2.014			-1.007
69300.000			2.014			-1.007
69400.000			2.014			-1.007
69501.000			2.016			-1.008
69600.000			2.015			-1.007
69700.000			2.015			-1.007
69801.000			2.014			-1.007
69901.000			2.015			-1.007
70002.000			2.015			-1.007
70100.000			2.015			-1.007
70200.000			2.015			-1.008
70301.000			2.015			-1.007
70400.000			2.014			-1.007
70500.000			2.014			-1.007
70601.000			2.014			-1.007
70701.000			2.014			-1.007
70801.000			2.014			-1.007
70901.000			2.014			-1.007
71000.000			2.015			-1.007
71100.000			2.014			-1.007
71201.000			2.014			-1.007
71300.000			2.014			-1.007
71400.000			2.015			-1.007
71502.000			2.015			-1.008
71601.000			2.014			-1.007
71700.000			2.014			-1.007
71801.000			2.015			-1.008
71900.000			2.014			-1.007
72000.000			2.014			-1.007
72101.000			2.013			-1.007
72201.000			2.014			-1.007
72301.000			2.014			-1.007
72401.000			2.014			-1.007
72500.000			2.013			-1.007
72600.000			2.013			-1.006
72701.000			2.013			-1.006
72800.000			2.014			-1.007
72900.000			2.014			-1.007
73002.000			2.014			-1.007
73101.000			2.015			-1.007
73201.000			2.014			-1.007
73300.000			2.013			-1.006
73400.000			2.013			-1.006
73501.000			2.013			-1.007
73600.000			2.014			-1.007
73700.000			2.013			-1.007
73802.000			2.013			-1.007
73901.000			2.013			-1.007
