# Acquired on 26/01/2024 15:30:00 
# SPIDER: Creep_6mm_HM077x145x38AB-1
# CREEP MEASUREMENT

# time [ms]		force [N]		stiffness [N/mm]
1.000			-20.683			-3.447
104.000			-21.049			-3.508
203.000			-21.087			-3.515
305.000			-21.013			-3.502
404.000			-20.953			-3.492
504.000			-20.907			-3.484
605.000			-20.830			-3.472
703.000			-20.798			-3.466
804.000			-20.770			-3.462
905.000			-20.743			-3.457
1004.000			-20.719			-3.453
1104.000			-20.696			-3.449
1205.000			-20.674			-3.446
1304.000			-20.637			-3.440
1403.000			-20.619			-3.436
1505.000			-20.601			-3.434
1604.000			-20.585			-3.431
1705.000			-20.569			-3.428
1804.000			-20.554			-3.426
1903.000			-20.541			-3.424
2005.000			-20.528			-3.421
2104.000			-20.502			-3.417
2204.000			-20.490			-3.415
2305.000			-20.477			-3.413
2404.000			-20.466			-3.411
2504.000			-20.454			-3.409
2605.000			-20.443			-3.407
2704.000			-20.433			-3.405
2804.000			-20.413			-3.402
2905.000			-20.403			-3.401
3004.000			-20.394			-3.399
3103.000			-20.384			-3.397
3205.000			-20.375			-3.396
3304.000			-20.367			-3.394
3404.000			-20.358			-3.393
3505.000			-20.341			-3.390
3604.000			-20.334			-3.389
3704.000			-20.326			-3.388
3805.000			-20.318			-3.386
3904.000			-20.312			-3.385
4004.000			-20.304			-3.384
4105.000			-20.297			-3.383
4204.000			-20.283			-3.381
4303.000			-20.277			-3.379
4405.000			-20.270			-3.378
4504.000			-20.262			-3.377
4604.000			-20.256			-3.376
4705.000			-20.250			-3.375
4804.000			-20.243			-3.374
4905.000			-20.237			-3.373
5003.000			-20.225			-3.371
5104.000			-20.220			-3.370
5205.000			-20.215			-3.369
5304.000			-20.210			-3.368
5404.000			-20.204			-3.367
5504.000			-20.197			-3.366
5604.000			-20.191			-3.365
5704.000			-20.181			-3.363
5805.000			-20.175			-3.363
5904.000			-20.171			-3.362
6004.000			-20.166			-3.361
6105.000			-20.161			-3.360
6204.000			-20.155			-3.359
6304.000			-20.150			-3.358
6405.000			-20.142			-3.357
6504.000			-20.137			-3.356
6604.000			-20.133			-3.355
6704.000			-20.128			-3.355
6804.000			-20.123			-3.354
6904.000			-20.118			-3.353
7005.000			-20.113			-3.352
7104.000			-20.104			-3.351
7203.000			-20.099			-3.350
7305.000			-20.095			-3.349
7404.000			-20.092			-3.349
7504.000			-20.087			-3.348
7605.000			-20.083			-3.347
7704.000			-20.079			-3.347
7804.000			-20.076			-3.346
7903.000			-20.067			-3.345
8004.000			-20.063			-3.344
8105.000			-20.060			-3.343
8204.000			-20.055			-3.343
8304.000			-20.051			-3.342
8404.000			-20.048			-3.341
8504.000			-20.045			-3.341
8604.000			-20.037			-3.339
8705.000			-20.033			-3.339
8804.000			-20.030			-3.338
8904.000			-20.025			-3.338
9005.000			-20.022			-3.337
9103.000			-20.019			-3.336
9204.000			-20.015			-3.336
9305.000			-20.008			-3.335
9404.000			-20.005			-3.334
9504.000			-20.001			-3.334
9604.000			-19.999			-3.333
9704.000			-19.996			-3.333
9804.000			-19.992			-3.332
9905.000			-19.989			-3.331
10004.000			-19.985			-3.331
10104.000			-19.979			-3.330
10205.000			-19.975			-3.329
10303.000			-19.972			-3.329
10404.000			-19.970			-3.328
10505.000			-19.967			-3.328
10604.000			-19.964			-3.327
10704.000			-19.961			-3.327
10805.000			-19.954			-3.326
10904.000			-19.951			-3.325
11003.000			-19.949			-3.325
11105.000			-19.945			-3.324
11204.000			-19.942			-3.324
11305.000			-19.940			-3.323
11404.000			-19.936			-3.323
11504.000			-19.930			-3.322
11605.000			-19.927			-3.321
11703.000			-19.925			-3.321
11804.000			-19.922			-3.320
11905.000			-19.920			-3.320
12004.000			-19.917			-3.320
12104.000			-19.913			-3.319
12205.000			-19.908			-3.318
12304.000			-19.906			-3.318
12403.000			-19.904			-3.317
12505.000			-19.902			-3.317
12604.000			-19.898			-3.316
12704.000			-19.895			-3.316
12805.000			-19.892			-3.315
12904.000			-19.889			-3.315
13004.000			-19.885			-3.314
13104.000			-19.882			-3.314
13204.000			-19.879			-3.313
13304.000			-19.877			-3.313
13405.000			-19.874			-3.312
13504.000			-19.871			-3.312
13604.000			-19.870			-3.312
13705.000			-19.865			-3.311
13803.000			-19.862			-3.310
13904.000			-19.860			-3.310
14005.000			-19.858			-3.310
14104.000			-19.856			-3.309
14204.000			-19.853			-3.309
14304.000			-19.851			-3.308
14404.000			-19.845			-3.308
14504.000			-19.843			-3.307
14604.000			-19.841			-3.307
14704.000			-19.839			-3.306
14805.000			-19.836			-3.306
14904.000			-19.834			-3.306
15004.000			-19.832			-3.305
15105.000			-19.826			-3.304
15203.000			-19.824			-3.304
15304.000			-19.823			-3.304
15405.000			-19.821			-3.304
15504.000			-19.819			-3.303
15604.000			-19.817			-3.303
15705.000			-19.815			-3.302
15804.000			-19.813			-3.302
15903.000			-19.807			-3.301
16005.000			-19.806			-3.301
16104.000			-19.805			-3.301
16204.000			-19.802			-3.300
16305.000			-19.800			-3.300
16404.000			-19.798			-3.300
16504.000			-19.796			-3.299
16604.000			-19.792			-3.299
16704.000			-19.790			-3.298
16804.000			-19.788			-3.298
16905.000			-19.785			-3.298
17004.000			-19.783			-3.297
17104.000			-19.781			-3.297
17205.000			-19.779			-3.296
17303.000			-19.775			-3.296
17404.000			-19.773			-3.296
17505.000			-19.772			-3.295
17604.000			-19.769			-3.295
17705.000			-19.767			-3.294
17804.000			-19.765			-3.294
17904.000			-19.764			-3.294
18004.000			-19.761			-3.293
18104.000			-19.758			-3.293
18203.000			-19.756			-3.293
18305.000			-19.755			-3.292
18404.000			-19.752			-3.292
18504.000			-19.750			-3.292
18605.000			-19.749			-3.292
18703.000			-19.747			-3.291
18804.000			-19.743			-3.291
18905.000			-19.742			-3.290
19004.000			-19.741			-3.290
19104.000			-19.738			-3.290
19205.000			-19.737			-3.289
19304.000			-19.733			-3.289
19403.000			-19.731			-3.289
19505.000			-19.729			-3.288
19604.000			-19.727			-3.288
19704.000			-19.725			-3.287
19805.000			-19.723			-3.287
19904.000			-19.722			-3.287
20004.000			-19.719			-3.287
20104.000			-19.718			-3.286
20204.000			-19.714			-3.286
20304.000			-19.712			-3.285
20405.000			-19.711			-3.285
20504.000			-19.711			-3.285
20604.000			-19.710			-3.285
20705.000			-19.707			-3.284
20803.000			-19.704			-3.284
20905.000			-19.702			-3.284
21004.000			-19.700			-3.283
21104.000			-19.698			-3.283
21205.000			-19.696			-3.283
21304.000			-19.694			-3.282
21404.000			-19.693			-3.282
21504.000			-19.691			-3.282
21604.000			-19.689			-3.281
21704.000			-19.686			-3.281
21805.000			-19.684			-3.281
21904.000			-19.683			-3.281
22004.000			-19.682			-3.280
22105.000			-19.680			-3.280
22203.000			-19.678			-3.280
22304.000			-19.677			-3.280
22405.000			-19.674			-3.279
22504.000			-19.672			-3.279
22604.000			-19.670			-3.278
22705.000			-19.669			-3.278
22804.000			-19.666			-3.278
22903.000			-19.664			-3.277
23005.000			-19.663			-3.277
23104.000			-19.661			-3.277
23204.000			-19.659			-3.277
23305.000			-19.657			-3.276
23404.000			-19.656			-3.276
23504.000			-19.655			-3.276
23604.000			-19.653			-3.275
23704.000			-19.651			-3.275
23804.000			-19.649			-3.275
23904.000			-19.647			-3.274
24004.000			-19.646			-3.274
24105.000			-19.645			-3.274
24204.000			-19.643			-3.274
24303.000			-19.641			-3.273
24405.000			-19.639			-3.273
24504.000			-19.638			-3.273
24604.000			-19.635			-3.272
24705.000			-19.634			-3.272
24804.000			-19.633			-3.272
24904.000			-19.632			-3.272
25004.000			-19.630			-3.272
25104.000			-19.627			-3.271
25204.000			-19.625			-3.271
25305.000			-19.624			-3.271
25404.000			-19.623			-3.270
25504.000			-19.622			-3.270
25605.000			-19.621			-3.270
25703.000			-19.619			-3.270
25804.000			-19.617			-3.270
25905.000			-19.616			-3.269
26004.000			-19.612			-3.269
26104.000			-19.612			-3.269
26204.000			-19.610			-3.268
26304.000			-19.608			-3.268
26403.000			-19.607			-3.268
26505.000			-19.607			-3.268
26604.000			-19.605			-3.268
26704.000			-19.603			-3.267
26805.000			-19.599			-3.266
26903.000			-19.598			-3.266
27004.000			-19.597			-3.266
27105.000			-19.596			-3.266
27204.000			-19.595			-3.266
27305.000			-19.594			-3.266
27404.000			-19.593			-3.265
27504.000			-19.589			-3.265
27605.000			-19.588			-3.265
27704.000			-19.588			-3.265
27803.000			-19.587			-3.264
27905.000			-19.585			-3.264
28004.000			-19.583			-3.264
28104.000			-19.581			-3.264
28205.000			-19.579			-3.263
28304.000			-19.579			-3.263
28404.000			-19.578			-3.263
28504.000			-19.576			-3.263
28604.000			-19.574			-3.262
28704.000			-19.573			-3.262
28805.000			-19.572			-3.262
28904.000			-19.570			-3.262
29004.000			-19.568			-3.261
29105.000			-19.567			-3.261
29203.000			-19.566			-3.261
29304.000			-19.565			-3.261
29405.000			-19.562			-3.260
29504.000			-19.561			-3.260
29604.000			-19.560			-3.260
29705.000			-19.558			-3.260
29804.000			-19.557			-3.260
29903.000			-19.556			-3.259
30005.000			-19.555			-3.259
30104.000			-19.554			-3.259
30204.000			-19.552			-3.259
30305.000			-19.550			-3.258
30404.000			-19.549			-3.258
30505.000			-19.547			-3.258
30603.000			-19.545			-3.257
30704.000			-19.545			-3.257
30805.000			-19.544			-3.257
30904.000			-19.543			-3.257
31004.000			-19.542			-3.257
31105.000			-19.539			-3.256
31204.000			-19.539			-3.256
31303.000			-19.538			-3.256
31405.000			-19.537			-3.256
31504.000			-19.535			-3.256
31604.000			-19.533			-3.256
31705.000			-19.532			-3.255
31803.000			-19.532			-3.255
31904.000			-19.529			-3.255
32004.000			-19.528			-3.255
32104.000			-19.527			-3.254
32204.000			-19.526			-3.254
32305.000			-19.525			-3.254
32404.000			-19.522			-3.254
32503.000			-19.522			-3.254
32605.000			-19.520			-3.253
32704.000			-19.520			-3.253
32804.000			-19.519			-3.253
32905.000			-19.518			-3.253
33004.000			-19.516			-3.253
33104.000			-19.515			-3.252
33204.000			-19.513			-3.252
33304.000			-19.510			-3.252
33404.000			-19.509			-3.252
33504.000			-19.509			-3.251
33604.000			-19.508			-3.251
33705.000			-19.507			-3.251
33804.000			-19.506			-3.251
33903.000			-19.505			-3.251
34005.000			-19.503			-3.251
34104.000			-19.503			-3.250
34204.000			-19.501			-3.250
34305.000			-19.499			-3.250
34404.000			-19.499			-3.250
34504.000			-19.498			-3.250
34604.000			-19.497			-3.250
34704.000			-19.497			-3.249
34804.000			-19.494			-3.249
34905.000			-19.493			-3.249
35004.000			-19.492			-3.249
35104.000			-19.491			-3.248
35205.000			-19.490			-3.248
35303.000			-19.490			-3.248
35404.000			-19.489			-3.248
35505.000			-19.487			-3.248
35604.000			-19.486			-3.248
35704.000			-19.486			-3.248
35805.000			-19.484			-3.247
35904.000			-19.482			-3.247
36003.000			-19.481			-3.247
36105.000			-19.480			-3.247
36204.000			-19.479			-3.246
36304.000			-19.478			-3.246
36405.000			-19.476			-3.246
36504.000			-19.474			-3.246
36604.000			-19.473			-3.246
36703.000			-19.473			-3.246
36804.000			-19.473			-3.245
36905.000			-19.471			-3.245
37004.000			-19.470			-3.245
37104.000			-19.469			-3.245
37205.000			-19.468			-3.245
37304.000			-19.466			-3.244
37403.000			-19.465			-3.244
37505.000			-19.465			-3.244
37604.000			-19.465			-3.244
37704.000			-19.462			-3.244
37805.000			-19.461			-3.243
37904.000			-19.460			-3.243
38004.000			-19.460			-3.243
38104.000			-19.458			-3.243
38204.000			-19.457			-3.243
38304.000			-19.456			-3.243
38405.000			-19.453			-3.242
38504.000			-19.453			-3.242
38604.000			-19.452			-3.242
38705.000			-19.451			-3.242
38803.000			-19.449			-3.242
38904.000			-19.449			-3.241
39005.000			-19.448			-3.241
39104.000			-19.445			-3.241
39204.000			-19.445			-3.241
39305.000			-19.444			-3.241
39404.000			-19.444			-3.241
39503.000			-19.442			-3.240
39605.000			-19.441			-3.240
39704.000			-19.440			-3.240
39804.000			-19.439			-3.240
39905.000			-19.438			-3.240
40004.000			-19.437			-3.240
40105.000			-19.436			-3.239
40203.000			-19.435			-3.239
40304.000			-19.435			-3.239
40405.000			-19.433			-3.239
40504.000			-19.432			-3.239
40604.000			-19.430			-3.238
40704.000			-19.429			-3.238
40804.000			-19.427			-3.238
40903.000			-19.427			-3.238
41005.000			-19.427			-3.238
41104.000			-19.426			-3.238
41204.000			-19.425			-3.238
41305.000			-19.423			-3.237
41403.000			-19.423			-3.237
41504.000			-19.422			-3.237
41605.000			-19.420			-3.237
41704.000			-19.419			-3.237
41804.000			-19.419			-3.237
41905.000			-19.418			-3.236
42004.000			-19.417			-3.236
42103.000			-19.416			-3.236
42205.000			-19.415			-3.236
42304.000			-19.414			-3.236
42404.000			-19.412			-3.235
42505.000			-19.411			-3.235
42604.000			-19.411			-3.235
42704.000			-19.411			-3.235
42804.000			-19.409			-3.235
42904.000			-19.407			-3.235
43004.000			-19.407			-3.235
43104.000			-19.406			-3.234
43204.000			-19.405			-3.234
43304.000			-19.405			-3.234
43404.000			-19.403			-3.234
43503.000			-19.401			-3.234
43605.000			-19.401			-3.234
43704.000			-19.400			-3.233
43804.000			-19.400			-3.233
43905.000			-19.399			-3.233
44003.000			-19.398			-3.233
44104.000			-19.397			-3.233
44205.000			-19.396			-3.233
44304.000			-19.394			-3.232
44404.000			-19.393			-3.232
44505.000			-19.392			-3.232
44604.000			-19.392			-3.232
44703.000			-19.391			-3.232
44805.000			-19.390			-3.232
44904.000			-19.388			-3.231
45004.000			-19.387			-3.231
45105.000			-19.386			-3.231
45204.000			-19.386			-3.231
45304.000			-19.386			-3.231
45404.000			-19.385			-3.231
45504.000			-19.384			-3.231
45604.000			-19.382			-3.230
45705.000			-19.381			-3.230
45804.000			-19.381			-3.230
45904.000			-19.380			-3.230
46005.000			-19.379			-3.230
46103.000			-19.378			-3.230
46204.000			-19.378			-3.230
46305.000			-19.375			-3.229
46404.000			-19.375			-3.229
46505.000			-19.374			-3.229
46604.000			-19.374			-3.229
46704.000			-19.373			-3.229
46804.000			-19.373			-3.229
46904.000			-19.372			-3.229
47004.000			-19.371			-3.228
47105.000			-19.368			-3.228
47204.000			-19.368			-3.228
47304.000			-19.367			-3.228
47405.000			-19.367			-3.228
47503.000			-19.366			-3.228
47604.000			-19.365			-3.228
47705.000			-19.364			-3.227
47804.000			-19.364			-3.227
47904.000			-19.362			-3.227
48005.000			-19.361			-3.227
48104.000			-19.361			-3.227
48203.000			-19.361			-3.227
48305.000			-19.360			-3.227
48404.000			-19.358			-3.226
48504.000			-19.357			-3.226
48605.000			-19.355			-3.226
48704.000			-19.354			-3.226
48804.000			-19.354			-3.226
48904.000			-19.353			-3.226
49004.000			-19.353			-3.226
49103.000			-19.353			-3.225
49205.000			-19.351			-3.225
49304.000			-19.349			-3.225
49404.000			-19.349			-3.225
49505.000			-19.349			-3.225
49603.000			-19.349			-3.225
49705.000			-19.348			-3.225
49803.000			-19.346			-3.224
49904.000			-19.344			-3.224
50005.000			-19.343			-3.224
50104.000			-19.343			-3.224
50204.000			-19.342			-3.224
50304.000			-19.341			-3.224
50404.000			-19.340			-3.223
50504.000			-19.339			-3.223
50605.000			-19.338			-3.223
50704.000			-19.337			-3.223
50804.000			-19.336			-3.223
50905.000			-19.335			-3.223
51003.000			-19.335			-3.222
51104.000			-19.334			-3.222
51205.000			-19.333			-3.222
51304.000			-19.333			-3.222
51404.000			-19.332			-3.222
51505.000			-19.331			-3.222
51604.000			-19.331			-3.222
51703.000			-19.330			-3.222
51805.000			-19.327			-3.221
51904.000			-19.327			-3.221
52004.000			-19.327			-3.221
52105.000			-19.325			-3.221
52204.000			-19.324			-3.221
52304.000			-19.324			-3.221
52404.000			-19.323			-3.221
52504.000			-19.322			-3.220
52604.000			-19.321			-3.220
52704.000			-19.320			-3.220
52804.000			-19.320			-3.220
52904.000			-19.319			-3.220
53004.000			-19.318			-3.220
53103.000			-19.317			-3.219
53205.000			-19.316			-3.219
53304.000			-19.316			-3.219
53404.000			-19.315			-3.219
53505.000			-19.316			-3.219
53603.000			-19.314			-3.219
53704.000			-19.313			-3.219
53805.000			-19.312			-3.219
53904.000			-19.311			-3.218
54004.000			-19.309			-3.218
54105.000			-19.309			-3.218
54204.000			-19.310			-3.218
54303.000			-19.309			-3.218
54405.000			-19.306			-3.218
54504.000			-19.305			-3.218
54604.000			-19.306			-3.218
54705.000			-19.304			-3.217
54804.000			-19.303			-3.217
54904.000			-19.302			-3.217
55004.000			-19.302			-3.217
55104.000			-19.300			-3.217
55204.000			-19.300			-3.217
55305.000			-19.300			-3.217
55404.000			-19.299			-3.216
55504.000			-19.298			-3.216
55605.000			-19.297			-3.216
55703.000			-19.296			-3.216
55804.000			-19.296			-3.216
55905.000			-19.294			-3.216
56004.000			-19.294			-3.216
56105.000			-19.293			-3.216
56204.000			-19.292			-3.215
56304.000			-19.291			-3.215
56404.000			-19.290			-3.215
56504.000			-19.291			-3.215
56604.000			-19.289			-3.215
56705.000			-19.288			-3.215
56804.000			-19.287			-3.215
56904.000			-19.286			-3.214
57005.000			-19.286			-3.214
57103.000			-19.286			-3.214
57204.000			-19.284			-3.214
57305.000			-19.284			-3.214
57404.000			-19.284			-3.214
57504.000			-19.283			-3.214
57605.000			-19.282			-3.214
57704.000			-19.282			-3.214
57803.000			-19.282			-3.214
57905.000			-19.281			-3.213
58004.000			-19.279			-3.213
58104.000			-19.278			-3.213
58205.000			-19.277			-3.213
58304.000			-19.276			-3.213
58404.000			-19.276			-3.213
58504.000			-19.276			-3.213
58604.000			-19.275			-3.212
58704.000			-19.274			-3.212
58805.000			-19.273			-3.212
58904.000			-19.272			-3.212
59004.000			-19.272			-3.212
59105.000			-19.272			-3.212
59203.000			-19.272			-3.212
59305.000			-19.270			-3.212
59404.000			-19.269			-3.212
59504.000			-19.268			-3.211
59605.000			-19.268			-3.211
59704.000			-19.268			-3.211
59804.000			-19.267			-3.211
59904.000			-19.266			-3.211
60004.000			-19.264			-3.211
60104.000			-19.264			-3.211
60205.000			-19.263			-3.210
60304.000			-19.263			-3.211
60404.000			-19.263			-3.211
60505.000			-19.262			-3.210
60603.000			-19.261			-3.210
60704.000			-19.259			-3.210
60805.000			-19.258			-3.210
60904.000			-19.259			-3.210
61004.000			-19.257			-3.210
61105.000			-19.257			-3.210
61204.000			-19.257			-3.210
61303.000			-19.256			-3.209
61405.000			-19.255			-3.209
61504.000			-19.253			-3.209
61604.000			-19.254			-3.209
61705.000			-19.253			-3.209
61804.000			-19.253			-3.209
61904.000			-19.253			-3.209
62004.000			-19.252			-3.209
62104.000			-19.250			-3.208
62204.000			-19.250			-3.208
62304.000			-19.250			-3.208
62404.000			-19.249			-3.208
62505.000			-19.248			-3.208
62604.000			-19.247			-3.208
62703.000			-19.246			-3.208
62805.000			-19.246			-3.208
62904.000			-19.244			-3.207
63004.000			-19.244			-3.207
63105.000			-19.245			-3.207
63204.000			-19.243			-3.207
63304.000			-19.242			-3.207
63404.000			-19.242			-3.207
63504.000			-19.242			-3.207
63604.000			-19.240			-3.207
63705.000			-19.239			-3.207
63804.000			-19.238			-3.206
63903.000			-19.238			-3.206
64005.000			-19.238			-3.206
64104.000			-19.236			-3.206
64204.000			-19.236			-3.206
64305.000			-19.235			-3.206
64404.000			-19.235			-3.206
64504.000			-19.235			-3.206
64604.000			-19.234			-3.206
64704.000			-19.233			-3.206
64804.000			-19.232			-3.205
64905.000			-19.232			-3.205
65004.000			-19.230			-3.205
65104.000			-19.230			-3.205
65205.000			-19.230			-3.205
65303.000			-19.228			-3.205
65404.000			-19.227			-3.204
65505.000			-19.227			-3.204
65604.000			-19.227			-3.205
65705.000			-19.226			-3.204
65804.000			-19.225			-3.204
65904.000			-19.225			-3.204
66004.000			-19.223			-3.204
66104.000			-19.223			-3.204
66204.000			-19.222			-3.204
66305.000			-19.221			-3.204
66404.000			-19.221			-3.203
66504.000			-19.220			-3.203
66605.000			-19.220			-3.203
66703.000			-19.219			-3.203
66804.000			-19.218			-3.203
66905.000			-19.218			-3.203
67004.000			-19.217			-3.203
67104.000			-19.218			-3.203
67205.000			-19.217			-3.203
67304.000			-19.217			-3.203
67403.000			-19.216			-3.203
67505.000			-19.213			-3.202
67604.000			-19.213			-3.202
67704.000			-19.213			-3.202
67805.000			-19.213			-3.202
67904.000			-19.213			-3.202
68004.000			-19.211			-3.202
68104.000			-19.210			-3.202
68204.000			-19.210			-3.202
68304.000			-19.209			-3.201
68405.000			-19.208			-3.201
68504.000			-19.206			-3.201
68604.000			-19.206			-3.201
68705.000			-19.205			-3.201
