# Acquired on 20/12/2023 10:25:34 
# SPIDER: Creep_3mm_07714532B-1
# CREEP MEASUREMENT

# time [ms]		force [N]		stiffness [N/mm]
1.000			-8.119			-2.706
102.000			-9.424			-3.141
200.000			-10.061			-3.354
300.000			-10.148			-3.383
401.000			-10.103			-3.368
500.000			-10.069			-3.356
600.000			-10.041			-3.347
702.000			-10.018			-3.339
801.000			-9.997			-3.332
900.000			-9.979			-3.326
1000.000			-9.962			-3.321
1100.000			-9.933			-3.311
1201.000			-9.920			-3.307
1300.000			-9.909			-3.303
1400.000			-9.899			-3.300
1502.000			-9.888			-3.296
1601.000			-9.878			-3.293
1700.000			-9.869			-3.290
1801.000			-9.853			-3.284
1900.000			-9.845			-3.282
2000.000			-9.838			-3.279
2101.000			-9.830			-3.277
2201.000			-9.824			-3.275
2301.000			-9.817			-3.272
2401.000			-9.813			-3.271
2500.000			-9.799			-3.266
2600.000			-9.794			-3.265
2701.000			-9.788			-3.263
2800.000			-9.783			-3.261
2900.000			-9.779			-3.260
3002.000			-9.773			-3.258
3101.000			-9.768			-3.256
3200.000			-9.763			-3.254
3301.000			-9.755			-3.252
3400.000			-9.751			-3.250
3500.000			-9.747			-3.249
3601.000			-9.743			-3.248
3700.000			-9.738			-3.246
3801.000			-9.735			-3.245
3902.000			-9.732			-3.244
4000.000			-9.724			-3.241
4100.000			-9.719			-3.240
4200.000			-9.716			-3.239
4300.000			-9.713			-3.238
4401.000			-9.710			-3.237
4501.000			-9.708			-3.236
4601.000			-9.704			-3.235
4702.000			-9.698			-3.233
4800.000			-9.694			-3.231
4900.000			-9.692			-3.231
5001.000			-9.690			-3.230
5100.000			-9.686			-3.229
5200.000			-9.684			-3.228
5302.000			-9.682			-3.227
5401.000			-9.679			-3.226
5501.000			-9.674			-3.225
5601.000			-9.672			-3.224
5700.000			-9.669			-3.223
5800.000			-9.667			-3.222
5901.000			-9.663			-3.221
6000.000			-9.661			-3.220
6101.000			-9.659			-3.220
6202.000			-9.654			-3.218
6300.000			-9.652			-3.217
6400.000			-9.650			-3.217
6501.000			-9.648			-3.216
6600.000			-9.646			-3.215
6700.000			-9.644			-3.215
6801.000			-9.642			-3.214
6901.000			-9.640			-3.213
7001.000			-9.636			-3.212
7101.000			-9.634			-3.211
7200.000			-9.632			-3.211
7300.000			-9.629			-3.210
7400.000			-9.629			-3.210
7500.000			-9.627			-3.209
7601.000			-9.625			-3.208
7701.000			-9.619			-3.206
7801.000			-9.618			-3.206
7901.000			-9.616			-3.205
8000.000			-9.614			-3.205
8100.000			-9.613			-3.204
8201.000			-9.612			-3.204
8300.000			-9.611			-3.204
8401.000			-9.607			-3.202
8502.000			-9.605			-3.202
8600.000			-9.603			-3.201
8700.000			-9.602			-3.201
8801.000			-9.600			-3.200
8900.000			-9.598			-3.199
9000.000			-9.596			-3.199
9101.000			-9.596			-3.199
9201.000			-9.592			-3.197
9301.000			-9.590			-3.197
9401.000			-9.589			-3.196
9500.000			-9.588			-3.196
9600.000			-9.586			-3.195
9701.000			-9.586			-3.195
9800.000			-9.585			-3.195
9900.000			-9.581			-3.194
10002.000			-9.580			-3.193
10101.000			-9.578			-3.193
10200.000			-9.577			-3.192
10301.000			-9.577			-3.192
10400.000			-9.574			-3.191
10500.000			-9.572			-3.191
10600.000			-9.572			-3.191
10700.000			-9.568			-3.189
10802.000			-9.567			-3.189
10901.000			-9.566			-3.189
11000.000			-9.564			-3.188
11101.000			-9.564			-3.188
11200.000			-9.563			-3.188
11300.000			-9.562			-3.187
11401.000			-9.558			-3.186
11500.000			-9.557			-3.186
11601.000			-9.555			-3.185
11702.000			-9.555			-3.185
11800.000			-9.554			-3.185
11900.000			-9.553			-3.184
12001.000			-9.551			-3.184
12100.000			-9.550			-3.183
12200.000			-9.550			-3.183
12301.000			-9.548			-3.183
12401.000			-9.546			-3.182
12501.000			-9.545			-3.182
12601.000			-9.544			-3.181
12700.000			-9.544			-3.181
12800.000			-9.543			-3.181
12901.000			-9.540			-3.180
13000.000			-9.540			-3.180
13100.000			-9.539			-3.180
13202.000			-9.537			-3.179
13301.000			-9.535			-3.178
13400.000			-9.534			-3.178
13501.000			-9.534			-3.178
13600.000			-9.532			-3.177
13700.000			-9.531			-3.177
13800.000			-9.530			-3.177
13900.000			-9.529			-3.176
14002.000			-9.528			-3.176
14101.000			-9.526			-3.175
14200.000			-9.525			-3.175
14301.000			-9.524			-3.175
14400.000			-9.523			-3.174
14500.000			-9.522			-3.174
14601.000			-9.522			-3.174
14701.000			-9.520			-3.173
14801.000			-9.519			-3.173
14901.000			-9.519			-3.173
15000.000			-9.518			-3.173
15100.000			-9.516			-3.172
15201.000			-9.515			-3.172
15300.000			-9.513			-3.171
15400.000			-9.512			-3.171
15502.000			-9.512			-3.171
15601.000			-9.511			-3.170
15700.000			-9.509			-3.170
15801.000			-9.508			-3.169
15900.000			-9.507			-3.169
16000.000			-9.507			-3.169
16101.000			-9.506			-3.169
16200.000			-9.504			-3.168
16301.000			-9.504			-3.168
16402.000			-9.503			-3.168
16500.000			-9.502			-3.167
16600.000			-9.501			-3.167
16701.000			-9.500			-3.167
16800.000			-9.499			-3.166
16900.000			-9.499			-3.166
17000.000			-9.498			-3.166
17101.000			-9.497			-3.166
17202.000			-9.497			-3.166
17301.000			-9.495			-3.165
17400.000			-9.494			-3.165
17501.000			-9.493			-3.164
17600.000			-9.492			-3.164
17700.000			-9.491			-3.164
17801.000			-9.490			-3.163
17901.000			-9.489			-3.163
18001.000			-9.488			-3.163
18102.000			-9.487			-3.162
18200.000			-9.486			-3.162
18300.000			-9.486			-3.162
18401.000			-9.485			-3.162
18500.000			-9.484			-3.161
18600.000			-9.483			-3.161
18701.000			-9.483			-3.161
18801.000			-9.481			-3.160
18901.000			-9.481			-3.160
19001.000			-9.480			-3.160
19100.000			-9.480			-3.160
19200.000			-9.479			-3.160
19301.000			-9.478			-3.159
19400.000			-9.477			-3.159
19500.000			-9.475			-3.158
19602.000			-9.475			-3.158
19701.000			-9.474			-3.158
19800.000			-9.473			-3.158
19901.000			-9.472			-3.157
20000.000			-9.471			-3.157
20100.000			-9.471			-3.157
20200.000			-9.471			-3.157
20300.000			-9.470			-3.157
20402.000			-9.470			-3.157
20501.000			-9.468			-3.156
20600.000			-9.468			-3.156
20701.000			-9.467			-3.156
20800.000			-9.466			-3.155
20900.000			-9.465			-3.155
21001.000			-9.465			-3.155
21100.000			-9.464			-3.155
21201.000			-9.463			-3.154
21302.000			-9.463			-3.154
21400.000			-9.461			-3.154
21500.000			-9.460			-3.153
21601.000			-9.460			-3.153
21700.000			-9.459			-3.153
21800.000			-9.460			-3.153
21901.000			-9.459			-3.153
22001.000			-9.458			-3.153
22101.000			-9.457			-3.152
22201.000			-9.457			-3.152
22300.000			-9.456			-3.152
22400.000			-9.455			-3.152
22501.000			-9.453			-3.151
22600.000			-9.453			-3.151
22700.000			-9.453			-3.151
22802.000			-9.451			-3.150
22901.000			-9.451			-3.150
23000.000			-9.450			-3.150
23101.000			-9.450			-3.150
23200.000			-9.449			-3.150
23300.000			-9.447			-3.149
23400.000			-9.447			-3.149
23500.000			-9.447			-3.149
23602.000			-9.446			-3.149
23701.000			-9.446			-3.149
23800.000			-9.446			-3.149
23901.000			-9.445			-3.148
24000.000			-9.445			-3.148
24100.000			-9.442			-3.147
24201.000			-9.442			-3.147
24300.000			-9.442			-3.147
24401.000			-9.441			-3.147
24502.000			-9.441			-3.147
24600.000			-9.441			-3.147
24700.000			-9.440			-3.147
24801.000			-9.439			-3.146
24900.000			-9.439			-3.146
25000.000			-9.439			-3.146
25101.000			-9.437			-3.146
25201.000			-9.436			-3.145
25301.000			-9.435			-3.145
25401.000			-9.435			-3.145
25500.000			-9.434			-3.145
25600.000			-9.433			-3.144
25701.000			-9.433			-3.144
25800.000			-9.433			-3.144
25900.000			-9.432			-3.144
26002.000			-9.432			-3.144
26101.000			-9.432			-3.144
26200.000			-9.429			-3.143
26301.000			-9.429			-3.143
26400.000			-9.429			-3.143
26500.000			-9.428			-3.143
26600.000			-9.428			-3.143
26700.000			-9.428			-3.143
26802.000			-9.426			-3.142
26901.000			-9.426			-3.142
27000.000			-9.424			-3.141
27101.000			-9.425			-3.142
27200.000			-9.425			-3.142
27300.000			-9.425			-3.142
27401.000			-9.423			-3.141
27501.000			-9.423			-3.141
27601.000			-9.422			-3.141
27702.000			-9.422			-3.141
27800.000			-9.420			-3.140
27900.000			-9.420			-3.140
28001.000			-9.420			-3.140
28100.000			-9.420			-3.140
28200.000			-9.419			-3.140
28302.000			-9.418			-3.139
28401.000			-9.418			-3.139
28501.000			-9.417			-3.139
28601.000			-9.416			-3.139
28700.000			-9.416			-3.139
28800.000			-9.415			-3.138
28901.000			-9.415			-3.138
29000.000			-9.414			-3.138
29101.000			-9.413			-3.138
29202.000			-9.413			-3.138
29301.000			-9.413			-3.138
29400.000			-9.413			-3.138
29501.000			-9.412			-3.137
29600.000			-9.412			-3.137
29700.000			-9.412			-3.137
29800.000			-9.411			-3.137
29901.000			-9.409			-3.136
30002.000			-9.409			-3.136
30100.000			-9.409			-3.136
30200.000			-9.408			-3.136
30301.000			-9.408			-3.136
30400.000			-9.408			-3.136
30500.000			-9.407			-3.136
30601.000			-9.405			-3.135
30701.000			-9.406			-3.135
30801.000			-9.406			-3.135
30901.000			-9.405			-3.135
31000.000			-9.405			-3.135
31100.000			-9.404			-3.135
31201.000			-9.403			-3.134
31300.000			-9.402			-3.134
31400.000			-9.401			-3.134
31502.000			-9.401			-3.134
31601.000			-9.400			-3.133
31700.000			-9.401			-3.134
31801.000			-9.400			-3.133
31900.000			-9.400			-3.133
32000.000			-9.400			-3.133
32101.000			-9.398			-3.133
32201.000			-9.399			-3.133
32301.000			-9.399			-3.133
32402.000			-9.397			-3.132
32500.000			-9.397			-3.132
32600.000			-9.396			-3.132
32701.000			-9.395			-3.132
32800.000			-9.395			-3.132
32900.000			-9.394			-3.131
33000.000			-9.394			-3.131
33101.000			-9.394			-3.131
33202.000			-9.393			-3.131
33300.000			-9.393			-3.131
33400.000			-9.392			-3.131
33501.000			-9.391			-3.130
33600.000			-9.391			-3.130
33700.000			-9.392			-3.131
33801.000			-9.392			-3.131
33901.000			-9.392			-3.131
34001.000			-9.390			-3.130
34101.000			-9.389			-3.130
34200.000			-9.388			-3.129
34300.000			-9.389			-3.130
34401.000			-9.387			-3.129
34500.000			-9.387			-3.129
34600.000			-9.387			-3.129
34702.000			-9.387			-3.129
34801.000			-9.386			-3.129
34900.000			-9.387			-3.129
35001.000			-9.386			-3.129
35100.000			-9.385			-3.128
35200.000			-9.385			-3.128
35301.000			-9.384			-3.128
35400.000			-9.383			-3.128
35501.000			-9.383			-3.128
35602.000			-9.383			-3.128
35700.000			-9.383			-3.128
35800.000			-9.382			-3.127
35901.000			-9.382			-3.127
36000.000			-9.380			-3.127
36100.000			-9.380			-3.127
36200.000			-9.380			-3.127
36301.000			-9.379			-3.126
36402.000			-9.378			-3.126
36500.000			-9.377			-3.126
36600.000			-9.378			-3.126
36701.000			-9.378			-3.126
36800.000			-9.376			-3.125
36900.000			-9.377			-3.126
37001.000			-9.378			-3.126
37101.000			-9.377			-3.126
37201.000			-9.376			-3.125
37301.000			-9.375			-3.125
37400.000			-9.374			-3.125
37500.000			-9.374			-3.125
37601.000			-9.374			-3.125
37700.000			-9.373			-3.124
37800.000			-9.373			-3.124
37902.000			-9.373			-3.124
38001.000			-9.373			-3.124
38100.000			-9.372			-3.124
38201.000			-9.371			-3.124
38300.000			-9.372			-3.124
38400.000			-9.371			-3.124
38501.000			-9.371			-3.124
38600.000			-9.370			-3.123
38701.000			-9.369			-3.123
38802.000			-9.369			-3.123
38900.000			-9.370			-3.123
39000.000			-9.368			-3.123
39101.000			-9.367			-3.122
39200.000			-9.367			-3.122
39300.000			-9.367			-3.122
39400.000			-9.368			-3.123
39501.000			-9.366			-3.122
39602.000			-9.366			-3.122
39701.000			-9.365			-3.122
39800.000			-9.365			-3.122
39901.000			-9.364			-3.121
40000.000			-9.364			-3.121
40100.000			-9.364			-3.121
40201.000			-9.363			-3.121
40301.000			-9.363			-3.121
40401.000			-9.362			-3.121
40501.000			-9.362			-3.121
40600.000			-9.362			-3.121
40700.000			-9.361			-3.120
40801.000			-9.361			-3.120
40900.000			-9.361			-3.120
41000.000			-9.360			-3.120
41102.000			-9.359			-3.120
41201.000			-9.360			-3.120
41300.000			-9.360			-3.120
41401.000			-9.360			-3.120
41500.000			-9.359			-3.120
41600.000			-9.360			-3.120
41701.000			-9.357			-3.119
41800.000			-9.356			-3.119
41901.000			-9.356			-3.119
42002.000			-9.357			-3.119
42100.000			-9.356			-3.119
42200.000			-9.355			-3.118
42301.000			-9.355			-3.118
42400.000			-9.355			-3.118
42500.000			-9.355			-3.118
42600.000			-9.355			-3.118
42701.000			-9.354			-3.118
42802.000			-9.354			-3.118
42900.000			-9.354			-3.118
43000.000			-9.353			-3.118
43101.000			-9.352			-3.117
43200.000			-9.353			-3.118
43300.000			-9.352			-3.117
43401.000			-9.352			-3.117
43501.000			-9.352			-3.117
43601.000			-9.352			-3.117
43701.000			-9.351			-3.117
43800.000			-9.350			-3.117
43900.000			-9.350			-3.117
44001.000			-9.349			-3.116
44100.000			-9.348			-3.116
44200.000			-9.348			-3.116
44302.000			-9.347			-3.116
44401.000			-9.348			-3.116
44500.000			-9.347			-3.116
44601.000			-9.347			-3.116
44700.000			-9.347			-3.116
44800.000			-9.347			-3.116
44901.000			-9.347			-3.116
45001.000			-9.346			-3.115
45101.000			-9.346			-3.115
45202.000			-9.344			-3.115
45300.000			-9.343			-3.114
45400.000			-9.344			-3.115
45501.000			-9.344			-3.115
45600.000			-9.344			-3.115
45700.000			-9.343			-3.114
45802.000			-9.343			-3.114
45901.000			-9.342			-3.114
46001.000			-9.342			-3.114
46100.000			-9.342			-3.114
46200.000			-9.342			-3.114
46301.000			-9.342			-3.114
46400.000			-9.342			-3.114
46500.000			-9.341			-3.114
46602.000			-9.340			-3.113
46701.000			-9.340			-3.113
46800.000			-9.340			-3.113
46901.000			-9.338			-3.113
47000.000			-9.338			-3.113
47100.000			-9.338			-3.113
47201.000			-9.338			-3.113
47300.000			-9.338			-3.113
47401.000			-9.338			-3.113
47502.000			-9.337			-3.112
47600.000			-9.337			-3.112
47700.000			-9.336			-3.112
47801.000			-9.335			-3.112
47900.000			-9.336			-3.112
48000.000			-9.336			-3.112
48101.000			-9.336			-3.112
48201.000			-9.336			-3.112
48301.000			-9.335			-3.112
48401.000			-9.334			-3.111
48500.000			-9.335			-3.112
48600.000			-9.334			-3.111
48701.000			-9.334			-3.111
48800.000			-9.333			-3.111
48900.000			-9.333			-3.111
49002.000			-9.332			-3.111
49101.000			-9.332			-3.111
49201.000			-9.333			-3.111
49300.000			-9.332			-3.111
49400.000			-9.331			-3.110
49501.000			-9.331			-3.110
49600.000			-9.331			-3.110
49700.000			-9.330			-3.110
49802.000			-9.329			-3.110
49901.000			-9.329			-3.110
50001.000			-9.330			-3.110
50101.000			-9.329			-3.110
50200.000			-9.329			-3.110
50300.000			-9.329			-3.110
50401.000			-9.329			-3.110
50500.000			-9.328			-3.109
50601.000			-9.329			-3.110
50702.000			-9.327			-3.109
50800.000			-9.326			-3.109
50900.000			-9.327			-3.109
51001.000			-9.327			-3.109
51100.000			-9.326			-3.109
51200.000			-9.327			-3.109
51301.000			-9.325			-3.108
51401.000			-9.324			-3.108
51501.000			-9.324			-3.108
51601.000			-9.324			-3.108
51700.000			-9.324			-3.108
51800.000			-9.324			-3.108
51901.000			-9.324			-3.108
52000.000			-9.323			-3.108
52100.000			-9.323			-3.108
52202.000			-9.322			-3.107
52301.000			-9.322			-3.107
52401.000			-9.322			-3.107
52500.000			-9.322			-3.107
52600.000			-9.322			-3.107
52701.000			-9.322			-3.107
52800.000			-9.321			-3.107
52901.000			-9.321			-3.107
53002.000			-9.320			-3.107
53100.000			-9.320			-3.107
53200.000			-9.320			-3.107
53301.000			-9.319			-3.106
53400.000			-9.319			-3.106
53500.000			-9.320			-3.107
53601.000			-9.319			-3.106
53701.000			-9.319			-3.106
53801.000			-9.319			-3.106
53901.000			-9.318			-3.106
54000.000			-9.317			-3.106
54100.000			-9.317			-3.106
54201.000			-9.317			-3.106
54300.000			-9.316			-3.105
54400.000			-9.316			-3.105
54502.000			-9.315			-3.105
54601.000			-9.315			-3.105
54700.000			-9.315			-3.105
54801.000			-9.315			-3.105
54900.000			-9.314			-3.105
55000.000			-9.314			-3.105
55101.000			-9.315			-3.105
55200.000			-9.313			-3.104
55302.000			-9.313			-3.104
55401.000			-9.314			-3.105
55500.000			-9.313			-3.104
55601.000			-9.313			-3.104
55700.000			-9.312			-3.104
55800.000			-9.313			-3.104
55901.000			-9.313			-3.104
56000.000			-9.311			-3.104
56101.000			-9.311			-3.104
56202.000			-9.312			-3.104
56300.000			-9.311			-3.104
56400.000			-9.311			-3.104
56501.000			-9.309			-3.103
56600.000			-9.310			-3.103
56700.000			-9.310			-3.103
56801.000			-9.310			-3.103
56901.000			-9.309			-3.103
57001.000			-9.309			-3.103
57101.000			-9.308			-3.103
57200.000			-9.308			-3.103
57300.000			-9.308			-3.103
57401.000			-9.308			-3.103
57500.000			-9.308			-3.103
57600.000			-9.308			-3.103
57702.000			-9.307			-3.102
57801.000			-9.306			-3.102
57900.000			-9.307			-3.102
58001.000			-9.306			-3.102
58100.000			-9.305			-3.102
58200.000			-9.305			-3.102
58301.000			-9.306			-3.102
58400.000			-9.307			-3.102
58502.000			-9.305			-3.102
58601.000			-9.304			-3.101
58700.000			-9.304			-3.101
58801.000			-9.303			-3.101
58900.000			-9.304			-3.101
59000.000			-9.304			-3.101
59101.000			-9.303			-3.101
59201.000			-9.303			-3.101
59301.000			-9.303			-3.101
59402.000			-9.302			-3.101
59500.000			-9.302			-3.101
59600.000			-9.303			-3.101
59701.000			-9.303			-3.101
59800.000			-9.302			-3.101
59900.000			-9.302			-3.101
60002.000			-9.302			-3.101
60101.000			-9.302			-3.101
60200.000			-9.300			-3.100
60301.000			-9.300			-3.100
60400.000			-9.300			-3.100
60500.000			-9.300			-3.100
60601.000			-9.299			-3.100
60700.000			-9.300			-3.100
60801.000			-9.300			-3.100
60902.000			-9.299			-3.100
61000.000			-9.298			-3.099
61100.000			-9.298			-3.099
61201.000			-9.299			-3.100
61300.000			-9.298			-3.099
61400.000			-9.297			-3.099
61501.000			-9.296			-3.099
61601.000			-9.296			-3.099
61702.000			-9.296			-3.099
61800.000			-9.296			-3.099
61900.000			-9.296			-3.099
62001.000			-9.296			-3.099
62100.000			-9.296			-3.099
62200.000			-9.295			-3.098
62301.000			-9.295			-3.098
62401.000			-9.293			-3.098
62501.000			-9.294			-3.098
62601.000			-9.294			-3.098
62700.000			-9.294			-3.098
62800.000			-9.294			-3.098
62901.000			-9.294			-3.098
63000.000			-9.294			-3.098
63100.000			-9.294			-3.098
63202.000			-9.293			-3.098
63301.000			-9.292			-3.097
63401.000			-9.292			-3.097
63501.000			-9.293			-3.098
63600.000			-9.293			-3.098
63700.000			-9.292			-3.097
63801.000			-9.292			-3.097
63900.000			-9.292			-3.097
64000.000			-9.291			-3.097
64102.000			-9.291			-3.097
64201.000			-9.290			-3.097
64300.000			-9.291			-3.097
64401.000			-9.291			-3.097
64500.000			-9.290			-3.097
64600.000			-9.289			-3.096
64701.000			-9.288			-3.096
64800.000			-9.288			-3.096
64902.000			-9.288			-3.096
65001.000			-9.289			-3.096
65100.000			-9.289			-3.096
65201.000			-9.288			-3.096
65300.000			-9.288			-3.096
65400.000			-9.288			-3.096
65501.000			-9.288			-3.096
65600.000			-9.288			-3.096
65701.000			-9.288			-3.096
65802.000			-9.288			-3.096
65900.000			-9.287			-3.096
66000.000			-9.287			-3.096
66101.000			-9.286			-3.095
66200.000			-9.286			-3.095
66300.000			-9.285			-3.095
66401.000			-9.285			-3.095
66501.000			-9.286			-3.095
66601.000			-9.286			-3.095
66701.000			-9.285			-3.095
66800.000			-9.285			-3.095
66900.000			-9.284			-3.095
67001.000			-9.284			-3.095
67100.000			-9.284			-3.095
67200.000			-9.283			-3.094
67302.000			-9.283			-3.094
67401.000			-9.283			-3.094
67501.000			-9.282			-3.094
67601.000			-9.282			-3.094
67700.000			-9.282			-3.094
67800.000			-9.282			-3.094
67901.000			-9.282			-3.094
68000.000			-9.282			-3.094
68100.000			-9.281			-3.094
68202.000			-9.280			-3.093
68301.000			-9.281			-3.094
68401.000			-9.280			-3.093
68500.000			-9.280			-3.093
68600.000			-9.279			-3.093
68701.000			-9.279			-3.093
68800.000			-9.279			-3.093
68900.000			-9.279			-3.093
69002.000			-9.280			-3.093
69101.000			-9.279			-3.093
69200.000			-9.279			-3.093
69301.000			-9.278			-3.093
69400.000			-9.278			-3.093
69500.000			-9.279			-3.093
69601.000			-9.279			-3.093
69700.000			-9.279			-3.093
69800.000			-9.277			-3.092
69902.000			-9.277			-3.092
70001.000			-9.278			-3.093
70100.000			-9.277			-3.092
70201.000			-9.276			-3.092
70300.000			-9.276			-3.092
70400.000			-9.277			-3.092
70501.000			-9.276			-3.092
70600.000			-9.275			-3.092
70701.000			-9.275			-3.092
70802.000			-9.275			-3.092
70900.000			-9.275			-3.092
71000.000			-9.275			-3.092
71101.000			-9.275			-3.092
71200.000			-9.274			-3.091
