# Acquired on 29/01/2024 15:00:29 
# SPIDER: Creep_8mm_HM077x145x38AA-2
# CREEP MEASUREMENT

# time [ms]		force [N]		stiffness [N/mm]
0.000			-43.243			-5.405
105.000			-44.454			-5.557
204.000			-44.727			-5.591
304.000			-44.550			-5.569
405.000			-44.454			-5.557
503.000			-44.375			-5.547
604.000			-44.308			-5.539
705.000			-44.249			-5.531
804.000			-44.195			-5.524
904.000			-44.103			-5.513
1004.000			-44.062			-5.508
1104.000			-44.023			-5.503
1204.000			-43.986			-5.498
1305.000			-43.953			-5.494
1404.000			-43.921			-5.490
1504.000			-43.891			-5.486
1605.000			-43.863			-5.483
1703.000			-43.810			-5.476
1804.000			-43.784			-5.473
1905.000			-43.758			-5.470
2004.000			-43.735			-5.467
2104.000			-43.712			-5.464
2204.000			-43.691			-5.461
2304.000			-43.671			-5.459
2404.000			-43.630			-5.454
2504.000			-43.613			-5.452
2604.000			-43.595			-5.449
2705.000			-43.577			-5.447
2804.000			-43.560			-5.445
2903.000			-43.543			-5.443
3005.000			-43.526			-5.441
3104.000			-43.495			-5.437
3204.000			-43.480			-5.435
3305.000			-43.466			-5.433
3404.000			-43.452			-5.431
3504.000			-43.438			-5.430
3605.000			-43.424			-5.428
3704.000			-43.410			-5.426
3804.000			-43.384			-5.423
3905.000			-43.371			-5.421
4004.000			-43.360			-5.420
4103.000			-43.346			-5.418
4205.000			-43.334			-5.417
4304.000			-43.323			-5.415
4404.000			-43.312			-5.414
4505.000			-43.301			-5.413
4604.000			-43.279			-5.410
4704.000			-43.269			-5.409
4804.000			-43.258			-5.407
4904.000			-43.246			-5.406
5004.000			-43.237			-5.405
5105.000			-43.226			-5.403
5204.000			-43.216			-5.402
5303.000			-43.197			-5.400
5405.000			-43.189			-5.399
5504.000			-43.179			-5.397
5604.000			-43.169			-5.396
5705.000			-43.159			-5.395
5804.000			-43.152			-5.394
5905.000			-43.143			-5.393
6003.000			-43.127			-5.391
6104.000			-43.119			-5.390
6205.000			-43.111			-5.389
6304.000			-43.101			-5.388
6404.000			-43.092			-5.387
6504.000			-43.085			-5.386
6604.000			-43.078			-5.385
6704.000			-43.063			-5.383
6805.000			-43.054			-5.382
6904.000			-43.046			-5.381
7004.000			-43.038			-5.380
7105.000			-43.032			-5.379
7203.000			-43.026			-5.378
7304.000			-43.018			-5.377
7405.000			-43.004			-5.375
7504.000			-42.997			-5.375
7604.000			-42.990			-5.374
7705.000			-42.983			-5.373
7804.000			-42.977			-5.372
7903.000			-42.969			-5.371
8005.000			-42.963			-5.370
8104.000			-42.956			-5.369
8204.000			-42.943			-5.368
8305.000			-42.937			-5.367
8403.000			-42.931			-5.366
8504.000			-42.924			-5.365
8605.000			-42.918			-5.365
8704.000			-42.913			-5.364
8804.000			-42.908			-5.364
8904.000			-42.894			-5.362
9004.000			-42.888			-5.361
9103.000			-42.882			-5.360
9204.000			-42.876			-5.360
9304.000			-42.871			-5.359
9405.000			-42.866			-5.358
9504.000			-42.860			-5.358
9604.000			-42.849			-5.356
9705.000			-42.844			-5.355
9803.000			-42.838			-5.355
9904.000			-42.832			-5.354
10005.000			-42.827			-5.353
10104.000			-42.822			-5.353
10204.000			-42.817			-5.352
10305.000			-42.807			-5.351
10404.000			-42.802			-5.350
10503.000			-42.796			-5.349
10605.000			-42.791			-5.349
10704.000			-42.787			-5.348
10804.000			-42.780			-5.347
10905.000			-42.775			-5.347
11004.000			-42.766			-5.346
11104.000			-42.761			-5.345
11204.000			-42.757			-5.345
11304.000			-42.752			-5.344
11404.000			-42.747			-5.343
11505.000			-42.742			-5.343
11604.000			-42.738			-5.342
11703.000			-42.733			-5.342
11805.000			-42.724			-5.341
11904.000			-42.722			-5.340
12004.000			-42.716			-5.340
12105.000			-42.712			-5.339
12204.000			-42.707			-5.338
12305.000			-42.701			-5.338
12403.000			-42.696			-5.337
12504.000			-42.690			-5.336
12605.000			-42.686			-5.336
12704.000			-42.682			-5.335
12804.000			-42.677			-5.335
12905.000			-42.673			-5.334
13004.000			-42.668			-5.334
13103.000			-42.663			-5.333
13205.000			-42.657			-5.332
13304.000			-42.652			-5.332
13404.000			-42.649			-5.331
13505.000			-42.644			-5.330
13604.000			-42.639			-5.330
13704.000			-42.635			-5.329
13804.000			-42.631			-5.329
13904.000			-42.623			-5.328
14004.000			-42.619			-5.327
14105.000			-42.615			-5.327
14204.000			-42.611			-5.326
14303.000			-42.607			-5.326
14405.000			-42.605			-5.326
14504.000			-42.601			-5.325
14604.000			-42.593			-5.324
14705.000			-42.591			-5.324
14804.000			-42.587			-5.323
14904.000			-42.583			-5.323
15004.000			-42.579			-5.322
15104.000			-42.575			-5.322
15204.000			-42.571			-5.321
15304.000			-42.566			-5.321
15404.000			-42.560			-5.320
15505.000			-42.557			-5.320
15604.000			-42.554			-5.319
15703.000			-42.551			-5.319
15805.000			-42.547			-5.318
15904.000			-42.544			-5.318
16004.000			-42.540			-5.317
16105.000			-42.534			-5.317
16204.000			-42.529			-5.316
16304.000			-42.526			-5.316
16404.000			-42.522			-5.315
16504.000			-42.518			-5.315
16604.000			-42.515			-5.314
16705.000			-42.512			-5.314
16804.000			-42.506			-5.313
16904.000			-42.504			-5.313
17005.000			-42.500			-5.313
17103.000			-42.496			-5.312
17204.000			-42.493			-5.312
17305.000			-42.490			-5.311
17404.000			-42.487			-5.311
17504.000			-42.481			-5.310
17604.000			-42.478			-5.310
17704.000			-42.475			-5.309
17804.000			-42.472			-5.309
17905.000			-42.469			-5.309
18004.000			-42.465			-5.308
18104.000			-42.462			-5.308
18205.000			-42.456			-5.307
18303.000			-42.454			-5.307
18404.000			-42.451			-5.306
18505.000			-42.448			-5.306
18604.000			-42.443			-5.305
18705.000			-42.440			-5.305
18804.000			-42.438			-5.305
18904.000			-42.436			-5.304
19004.000			-42.429			-5.304
19104.000			-42.425			-5.303
19204.000			-42.422			-5.303
19305.000			-42.420			-5.303
19404.000			-42.418			-5.302
19504.000			-42.416			-5.302
19605.000			-42.412			-5.302
19703.000			-42.406			-5.301
19804.000			-42.403			-5.300
19905.000			-42.400			-5.300
20004.000			-42.398			-5.300
20104.000			-42.394			-5.299
20205.000			-42.391			-5.299
20304.000			-42.389			-5.299
20403.000			-42.384			-5.298
20505.000			-42.381			-5.298
20604.000			-42.378			-5.297
20704.000			-42.375			-5.297
20805.000			-42.373			-5.297
20903.000			-42.370			-5.296
21004.000			-42.367			-5.296
21105.000			-42.363			-5.295
21204.000			-42.359			-5.295
21304.000			-42.357			-5.295
21405.000			-42.355			-5.294
21504.000			-42.351			-5.294
21603.000			-42.349			-5.294
21705.000			-42.346			-5.293
21804.000			-42.341			-5.293
21905.000			-42.338			-5.292
22004.000			-42.337			-5.292
22104.000			-42.334			-5.292
22205.000			-42.332			-5.291
22303.000			-42.329			-5.291
22404.000			-42.327			-5.291
22505.000			-42.324			-5.290
22604.000			-42.319			-5.290
22704.000			-42.316			-5.290
22804.000			-42.313			-5.289
22904.000			-42.311			-5.289
23004.000			-42.308			-5.289
23105.000			-42.306			-5.288
23204.000			-42.304			-5.288
23304.000			-42.298			-5.287
23405.000			-42.296			-5.287
23503.000			-42.294			-5.287
23604.000			-42.291			-5.286
23705.000			-42.289			-5.286
23804.000			-42.286			-5.286
23904.000			-42.285			-5.286
24005.000			-42.279			-5.285
24104.000			-42.277			-5.285
24203.000			-42.275			-5.284
24305.000			-42.273			-5.284
24404.000			-42.271			-5.284
24504.000			-42.268			-5.284
24605.000			-42.266			-5.283
24704.000			-42.261			-5.283
24804.000			-42.259			-5.282
24903.000			-42.256			-5.282
25004.000			-42.254			-5.282
25105.000			-42.253			-5.282
25204.000			-42.250			-5.281
25304.000			-42.247			-5.281
25404.000			-42.243			-5.280
25504.000			-42.240			-5.280
25604.000			-42.239			-5.280
25705.000			-42.236			-5.279
25804.000			-42.233			-5.279
25904.000			-42.231			-5.279
26005.000			-42.230			-5.279
26103.000			-42.227			-5.278
26204.000			-42.223			-5.278
26305.000			-42.221			-5.278
26404.000			-42.219			-5.277
26504.000			-42.217			-5.277
26605.000			-42.215			-5.277
26704.000			-42.213			-5.277
26803.000			-42.211			-5.276
26905.000			-42.206			-5.276
27004.000			-42.202			-5.275
27104.000			-42.200			-5.275
27205.000			-42.200			-5.275
27303.000			-42.198			-5.275
27404.000			-42.197			-5.275
27505.000			-42.194			-5.274
27604.000			-42.190			-5.274
27704.000			-42.189			-5.274
27805.000			-42.187			-5.273
27904.000			-42.185			-5.273
28003.000			-42.183			-5.273
28105.000			-42.179			-5.272
28204.000			-42.176			-5.272
28305.000			-42.173			-5.272
28404.000			-42.170			-5.271
28504.000			-42.169			-5.271
28605.000			-42.168			-5.271
28703.000			-42.166			-5.271
28804.000			-42.164			-5.270
28905.000			-42.163			-5.270
29004.000			-42.158			-5.270
29104.000			-42.156			-5.270
29205.000			-42.154			-5.269
29304.000			-42.151			-5.269
29403.000			-42.150			-5.269
29505.000			-42.149			-5.269
29604.000			-42.146			-5.268
29704.000			-42.144			-5.268
29805.000			-42.140			-5.268
29904.000			-42.139			-5.267
30004.000			-42.136			-5.267
30104.000			-42.134			-5.267
30204.000			-42.133			-5.267
30304.000			-42.130			-5.266
30405.000			-42.128			-5.266
30504.000			-42.125			-5.266
30603.000			-42.123			-5.265
30705.000			-42.123			-5.265
30804.000			-42.120			-5.265
30904.000			-42.118			-5.265
31005.000			-42.116			-5.264
31104.000			-42.114			-5.264
31204.000			-42.109			-5.264
31303.000			-42.108			-5.264
31404.000			-42.106			-5.263
31505.000			-42.105			-5.263
31604.000			-42.103			-5.263
31704.000			-42.101			-5.263
31804.000			-42.099			-5.262
31904.000			-42.095			-5.262
32003.000			-42.094			-5.262
32105.000			-42.093			-5.262
32204.000			-42.091			-5.261
32304.000			-42.089			-5.261
32405.000			-42.087			-5.261
32503.000			-42.085			-5.261
32604.000			-42.082			-5.260
32705.000			-42.079			-5.260
32804.000			-42.077			-5.260
32904.000			-42.074			-5.259
33005.000			-42.072			-5.259
33104.000			-42.072			-5.259
33203.000			-42.070			-5.259
33305.000			-42.069			-5.259
33404.000			-42.064			-5.258
33504.000			-42.063			-5.258
33605.000			-42.062			-5.258
33704.000			-42.060			-5.257
33804.000			-42.058			-5.257
33904.000			-42.056			-5.257
34004.000			-42.056			-5.257
34104.000			-42.051			-5.256
34205.000			-42.050			-5.256
34304.000			-42.048			-5.256
34403.000			-42.046			-5.256
34505.000			-42.045			-5.256
34604.000			-42.043			-5.255
34705.000			-42.041			-5.255
34804.000			-42.038			-5.255
34904.000			-42.037			-5.255
35005.000			-42.033			-5.254
35103.000			-42.031			-5.254
35204.000			-42.031			-5.254
35305.000			-42.030			-5.254
35404.000			-42.028			-5.253
35504.000			-42.025			-5.253
35605.000			-42.024			-5.253
35704.000			-42.021			-5.253
35803.000			-42.020			-5.252
35905.000			-42.018			-5.252
36004.000			-42.017			-5.252
36104.000			-42.015			-5.252
36205.000			-42.012			-5.252
36303.000			-42.010			-5.251
36404.000			-42.008			-5.251
36505.000			-42.007			-5.251
36604.000			-42.005			-5.251
36704.000			-42.004			-5.250
36805.000			-42.001			-5.250
36904.000			-42.001			-5.250
37003.000			-41.997			-5.250
37105.000			-41.994			-5.249
37204.000			-41.994			-5.249
37304.000			-41.993			-5.249
37405.000			-41.991			-5.249
37504.000			-41.988			-5.249
37604.000			-41.986			-5.248
37703.000			-41.984			-5.248
37804.000			-41.983			-5.248
37905.000			-41.982			-5.248
38004.000			-41.980			-5.247
38104.000			-41.978			-5.247
38205.000			-41.978			-5.247
38304.000			-41.975			-5.247
38403.000			-41.973			-5.247
38505.000			-41.971			-5.246
38604.000			-41.970			-5.246
38704.000			-41.969			-5.246
38805.000			-41.967			-5.246
38904.000			-41.966			-5.246
39004.000			-41.964			-5.246
39104.000			-41.961			-5.245
39204.000			-41.958			-5.245
39304.000			-41.956			-5.245
39405.000			-41.955			-5.244
39504.000			-41.954			-5.244
39604.000			-41.952			-5.244
39705.000			-41.952			-5.244
39803.000			-41.951			-5.244
39904.000			-41.948			-5.244
40005.000			-41.947			-5.243
40104.000			-41.944			-5.243
40204.000			-41.942			-5.243
40305.000			-41.941			-5.243
40404.000			-41.941			-5.243
40503.000			-41.939			-5.242
40605.000			-41.935			-5.242
40704.000			-41.935			-5.242
40804.000			-41.932			-5.242
40905.000			-41.931			-5.241
41003.000			-41.930			-5.241
41105.000			-41.928			-5.241
41204.000			-41.927			-5.241
41304.000			-41.924			-5.241
41405.000			-41.923			-5.240
41504.000			-41.922			-5.240
41604.000			-41.921			-5.240
41704.000			-41.919			-5.240
41804.000			-41.917			-5.240
41904.000			-41.915			-5.239
42005.000			-41.912			-5.239
42104.000			-41.911			-5.239
42204.000			-41.909			-5.239
42305.000			-41.908			-5.239
42403.000			-41.907			-5.238
42504.000			-41.907			-5.238
42605.000			-41.905			-5.238
42704.000			-41.901			-5.238
42804.000			-41.901			-5.238
42904.000			-41.900			-5.238
43004.000			-41.899			-5.237
43103.000			-41.897			-5.237
43205.000			-41.895			-5.237
43304.000			-41.893			-5.237
43404.000			-41.890			-5.236
43505.000			-41.888			-5.236
43603.000			-41.888			-5.236
43704.000			-41.886			-5.236
43805.000			-41.884			-5.236
43904.000			-41.884			-5.235
44004.000			-41.882			-5.235
44104.000			-41.880			-5.235
44204.000			-41.879			-5.235
44303.000			-41.877			-5.235
44404.000			-41.876			-5.234
44504.000			-41.875			-5.234
44605.000			-41.874			-5.234
44704.000			-41.873			-5.234
44804.000			-41.872			-5.234
44905.000			-41.868			-5.234
45003.000			-41.867			-5.233
45104.000			-41.865			-5.233
45205.000			-41.864			-5.233
45304.000			-41.862			-5.233
45404.000			-41.861			-5.233
45505.000			-41.861			-5.233
45604.000			-41.859			-5.232
45703.000			-41.858			-5.232
45805.000			-41.856			-5.232
45904.000			-41.854			-5.232
46004.000			-41.853			-5.232
46105.000			-41.851			-5.231
46204.000			-41.850			-5.231
46304.000			-41.848			-5.231
46404.000			-41.846			-5.231
46504.000			-41.845			-5.231
46604.000			-41.844			-5.231
46705.000			-41.843			-5.230
46804.000			-41.841			-5.230
46904.000			-41.839			-5.230
47005.000			-41.838			-5.230
47103.000			-41.835			-5.229
47204.000			-41.834			-5.229
47305.000			-41.833			-5.229
47404.000			-41.831			-5.229
47505.000			-41.830			-5.229
47604.000			-41.829			-5.229
47704.000			-41.828			-5.229
47804.000			-41.825			-5.228
47904.000			-41.825			-5.228
48004.000			-41.823			-5.228
48105.000			-41.823			-5.228
48204.000			-41.821			-5.228
48304.000			-41.820			-5.227
48405.000			-41.818			-5.227
48503.000			-41.817			-5.227
48604.000			-41.816			-5.227
48705.000			-41.814			-5.227
48804.000			-41.813			-5.227
48904.000			-41.812			-5.226
49005.000			-41.811			-5.226
49104.000			-41.809			-5.226
49203.000			-41.807			-5.226
49305.000			-41.805			-5.226
49404.000			-41.805			-5.226
49504.000			-41.804			-5.225
49605.000			-41.802			-5.225
49703.000			-41.800			-5.225
49804.000			-41.800			-5.225
49904.000			-41.796			-5.225
50004.000			-41.795			-5.224
50104.000			-41.794			-5.224
50205.000			-41.793			-5.224
50304.000			-41.792			-5.224
50403.000			-41.790			-5.224
50505.000			-41.788			-5.224
50604.000			-41.787			-5.223
50705.000			-41.786			-5.223
50804.000			-41.785			-5.223
50904.000			-41.784			-5.223
51005.000			-41.782			-5.223
51103.000			-41.781			-5.223
51204.000			-41.780			-5.222
51305.000			-41.778			-5.222
51404.000			-41.777			-5.222
51504.000			-41.775			-5.222
51605.000			-41.775			-5.222
51704.000			-41.774			-5.222
51803.000			-41.773			-5.222
51905.000			-41.771			-5.221
52004.000			-41.769			-5.221
52104.000			-41.767			-5.221
52205.000			-41.766			-5.221
52304.000			-41.765			-5.221
52404.000			-41.764			-5.220
52504.000			-41.762			-5.220
52604.000			-41.761			-5.220
52704.000			-41.760			-5.220
52805.000			-41.759			-5.220
52904.000			-41.758			-5.220
53004.000			-41.757			-5.220
53105.000			-41.755			-5.219
53203.000			-41.754			-5.219
53304.000			-41.753			-5.219
53405.000			-41.751			-5.219
53504.000			-41.750			-5.219
53604.000			-41.748			-5.219
53704.000			-41.747			-5.218
53804.000			-41.747			-5.218
53903.000			-41.744			-5.218
54004.000			-41.745			-5.218
54104.000			-41.744			-5.218
54205.000			-41.740			-5.218
54304.000			-41.739			-5.217
54403.000			-41.739			-5.217
54505.000			-41.738			-5.217
54604.000			-41.736			-5.217
54704.000			-41.735			-5.217
54805.000			-41.734			-5.217
54904.000			-41.733			-5.217
55004.000			-41.731			-5.216
55104.000			-41.730			-5.216
55204.000			-41.727			-5.216
55304.000			-41.726			-5.216
55405.000			-41.727			-5.216
55504.000			-41.726			-5.216
55604.000			-41.725			-5.216
55705.000			-41.723			-5.215
55803.000			-41.721			-5.215
55904.000			-41.719			-5.215
56005.000			-41.720			-5.215
56104.000			-41.719			-5.215
56204.000			-41.717			-5.215
56305.000			-41.716			-5.214
56404.000			-41.713			-5.214
56503.000			-41.712			-5.214
56605.000			-41.711			-5.214
56704.000			-41.710			-5.214
56804.000			-41.709			-5.214
56905.000			-41.709			-5.214
57004.000			-41.708			-5.213
57105.000			-41.706			-5.213
57203.000			-41.704			-5.213
57304.000			-41.704			-5.213
57405.000			-41.702			-5.213
57504.000			-41.701			-5.213
57604.000			-41.699			-5.212
57704.000			-41.698			-5.212
57804.000			-41.697			-5.212
57903.000			-41.696			-5.212
58005.000			-41.695			-5.212
58104.000			-41.694			-5.212
58204.000			-41.692			-5.212
58305.000			-41.692			-5.211
58404.000			-41.691			-5.211
58504.000			-41.690			-5.211
58604.000			-41.688			-5.211
58704.000			-41.687			-5.211
58804.000			-41.685			-5.211
58905.000			-41.684			-5.211
59004.000			-41.684			-5.210
59104.000			-41.682			-5.210
59205.000			-41.681			-5.210
59303.000			-41.680			-5.210
59404.000			-41.679			-5.210
59505.000			-41.677			-5.210
59604.000			-41.677			-5.210
59704.000			-41.676			-5.210
59805.000			-41.675			-5.209
59904.000			-41.674			-5.209
60003.000			-41.673			-5.209
60105.000			-41.671			-5.209
60204.000			-41.670			-5.209
60305.000			-41.669			-5.209
60404.000			-41.667			-5.208
60504.000			-41.665			-5.208
60605.000			-41.665			-5.208
60703.000			-41.663			-5.208
60804.000			-41.663			-5.208
60905.000			-41.661			-5.208
61004.000			-41.660			-5.207
61104.000			-41.659			-5.207
61204.000			-41.659			-5.207
61304.000			-41.657			-5.207
61403.000			-41.656			-5.207
61505.000			-41.655			-5.207
61604.000			-41.653			-5.207
61704.000			-41.652			-5.206
61805.000			-41.651			-5.206
61903.000			-41.650			-5.206
62004.000			-41.649			-5.206
62105.000			-41.646			-5.206
62204.000			-41.646			-5.206
62304.000			-41.645			-5.206
62405.000			-41.643			-5.205
62504.000			-41.644			-5.205
62603.000			-41.643			-5.205
62705.000			-41.642			-5.205
62804.000			-41.641			-5.205
62904.000			-41.639			-5.205
63005.000			-41.638			-5.205
63104.000			-41.637			-5.205
63204.000			-41.636			-5.205
63303.000			-41.635			-5.204
63404.000			-41.635			-5.204
63505.000			-41.635			-5.204
63604.000			-41.631			-5.204
63704.000			-41.630			-5.204
63805.000			-41.628			-5.204
63904.000			-41.628			-5.203
64003.000			-41.627			-5.203
64105.000			-41.627			-5.203
64204.000			-41.626			-5.203
64304.000			-41.623			-5.203
64405.000			-41.622			-5.203
64503.000			-41.622			-5.203
64604.000			-41.621			-5.203
64705.000			-41.619			-5.202
64804.000			-41.618			-5.202
64904.000			-41.618			-5.202
65005.000			-41.617			-5.202
65104.000			-41.616			-5.202
65203.000			-41.615			-5.202
65305.000			-41.613			-5.202
65404.000			-41.612			-5.201
65504.000			-41.609			-5.201
65605.000			-41.609			-5.201
65704.000			-41.609			-5.201
65804.000			-41.607			-5.201
65904.000			-41.606			-5.201
66004.000			-41.605			-5.201
66104.000			-41.605			-5.201
66205.000			-41.604			-5.201
66304.000			-41.603			-5.200
66404.000			-41.602			-5.200
66505.000			-41.600			-5.200
66603.000			-41.599			-5.200
66705.000			-41.598			-5.200
66804.000			-41.597			-5.200
66904.000			-41.597			-5.200
67005.000			-41.596			-5.200
67104.000			-41.595			-5.199
67204.000			-41.593			-5.199
67304.000			-41.592			-5.199
67404.000			-41.591			-5.199
67504.000			-41.590			-5.199
67605.000			-41.589			-5.199
67704.000			-41.588			-5.198
67804.000			-41.586			-5.198
67905.000			-41.586			-5.198
68003.000			-41.585			-5.198
68104.000			-41.584			-5.198
68205.000			-41.584			-5.198
68304.000			-41.583			-5.198
68404.000			-41.582			-5.198
68505.000			-41.580			-5.198
68604.000			-41.578			-5.197
68703.000			-41.577			-5.197
