# Acquired on 20/12/2023 17:28:22 
# SPIDER: Creep_7mm_07714532C-1
# CREEP MEASUREMENT

# time [ms]		force [N]		stiffness [N/mm]
1.000			-9.348			-1.335
102.000			-10.513			-1.502
200.000			-10.617			-1.517
300.000			-10.577			-1.511
401.000			-10.528			-1.504
500.000			-10.491			-1.499
600.000			-10.460			-1.494
702.000			-10.433			-1.490
801.000			-10.410			-1.487
900.000			-10.369			-1.481
1001.000			-10.352			-1.479
1100.000			-10.337			-1.477
1200.000			-10.323			-1.475
1301.000			-10.309			-1.473
1401.000			-10.296			-1.471
1501.000			-10.285			-1.469
1601.000			-10.260			-1.466
1700.000			-10.250			-1.464
1800.000			-10.240			-1.463
1901.000			-10.231			-1.462
2000.000			-10.221			-1.460
2100.000			-10.213			-1.459
2202.000			-10.205			-1.458
2301.000			-10.188			-1.455
2400.000			-10.181			-1.454
2501.000			-10.174			-1.453
2600.000			-10.167			-1.452
2700.000			-10.160			-1.451
2801.000			-10.153			-1.450
2901.000			-10.146			-1.449
3002.000			-10.136			-1.448
3100.000			-10.128			-1.447
3200.000			-10.122			-1.446
3301.000			-10.116			-1.445
3400.000			-10.112			-1.445
3500.000			-10.107			-1.444
3601.000			-10.101			-1.443
3701.000			-10.096			-1.442
3801.000			-10.087			-1.441
3901.000			-10.082			-1.440
4000.000			-10.077			-1.440
4100.000			-10.072			-1.439
4201.000			-10.068			-1.438
4300.000			-10.063			-1.438
4401.000			-10.059			-1.437
4502.000			-10.050			-1.436
4600.000			-10.047			-1.435
4700.000			-10.042			-1.435
4801.000			-10.038			-1.434
4900.000			-10.035			-1.434
5000.000			-10.031			-1.433
5102.000			-10.027			-1.432
5201.000			-10.023			-1.432
5300.000			-10.016			-1.431
5401.000			-10.013			-1.430
5500.000			-10.009			-1.430
5600.000			-10.006			-1.429
5701.000			-10.004			-1.429
5800.000			-10.001			-1.429
5901.000			-9.997			-1.428
6002.000			-9.990			-1.427
6100.000			-9.988			-1.427
6200.000			-9.986			-1.427
6300.000			-9.982			-1.426
6400.000			-9.979			-1.426
6501.000			-9.975			-1.425
6600.000			-9.972			-1.425
6701.000			-9.966			-1.424
6802.000			-9.964			-1.423
6900.000			-9.961			-1.423
7000.000			-9.958			-1.423
7101.000			-9.955			-1.422
7200.000			-9.952			-1.422
7300.000			-9.951			-1.422
7402.000			-9.945			-1.421
7501.000			-9.942			-1.420
7601.000			-9.940			-1.420
7701.000			-9.938			-1.420
7800.000			-9.936			-1.419
7900.000			-9.932			-1.419
8001.000			-9.929			-1.418
8100.000			-9.927			-1.418
8201.000			-9.922			-1.417
8302.000			-9.921			-1.417
8400.000			-9.918			-1.417
8500.000			-9.917			-1.417
8601.000			-9.915			-1.416
8700.000			-9.911			-1.416
8800.000			-9.910			-1.416
8901.000			-9.905			-1.415
9001.000			-9.903			-1.415
9101.000			-9.900			-1.414
9201.000			-9.898			-1.414
9300.000			-9.897			-1.414
9400.000			-9.895			-1.414
9500.000			-9.893			-1.413
9600.000			-9.890			-1.413
9701.000			-9.886			-1.412
9801.000			-9.884			-1.412
9901.000			-9.882			-1.412
10001.000			-9.881			-1.412
10100.000			-9.880			-1.411
10200.000			-9.878			-1.411
10301.000			-9.874			-1.411
10400.000			-9.872			-1.410
10500.000			-9.870			-1.410
10602.000			-9.867			-1.410
10701.000			-9.865			-1.409
10800.000			-9.864			-1.409
10901.000			-9.863			-1.409
11000.000			-9.861			-1.409
11100.000			-9.858			-1.408
11201.000			-9.855			-1.408
11300.000			-9.854			-1.408
11401.000			-9.852			-1.407
11502.000			-9.850			-1.407
11600.000			-9.848			-1.407
11700.000			-9.846			-1.407
11801.000			-9.845			-1.406
11900.000			-9.842			-1.406
12000.000			-9.841			-1.406
12101.000			-9.839			-1.406
12201.000			-9.836			-1.405
12301.000			-9.835			-1.405
12401.000			-9.834			-1.405
12500.000			-9.832			-1.405
12600.000			-9.829			-1.404
12700.000			-9.828			-1.404
12800.000			-9.826			-1.404
12901.000			-9.824			-1.403
13001.000			-9.823			-1.403
13101.000			-9.822			-1.403
13201.000			-9.820			-1.403
13300.000			-9.816			-1.402
13400.000			-9.815			-1.402
13501.000			-9.814			-1.402
13600.000			-9.813			-1.402
13700.000			-9.812			-1.402
13802.000			-9.810			-1.401
13901.000			-9.808			-1.401
14000.000			-9.806			-1.401
14101.000			-9.804			-1.401
14200.000			-9.802			-1.400
14300.000			-9.801			-1.400
14401.000			-9.800			-1.400
14500.000			-9.799			-1.400
14601.000			-9.799			-1.400
14702.000			-9.796			-1.399
14800.000			-9.794			-1.399
14900.000			-9.792			-1.399
15001.000			-9.790			-1.399
15100.000			-9.788			-1.398
15200.000			-9.787			-1.398
15301.000			-9.785			-1.398
15401.000			-9.785			-1.398
15501.000			-9.783			-1.398
15601.000			-9.780			-1.397
15700.000			-9.779			-1.397
15800.000			-9.779			-1.397
15900.000			-9.777			-1.397
16000.000			-9.775			-1.396
16101.000			-9.775			-1.396
16201.000			-9.774			-1.396
16301.000			-9.770			-1.396
16401.000			-9.769			-1.396
16500.000			-9.768			-1.395
16600.000			-9.767			-1.395
16701.000			-9.766			-1.395
16800.000			-9.766			-1.395
16900.000			-9.764			-1.395
17002.000			-9.762			-1.395
17101.000			-9.760			-1.394
17200.000			-9.758			-1.394
17301.000			-9.758			-1.394
17400.000			-9.758			-1.394
17500.000			-9.757			-1.394
17601.000			-9.755			-1.394
17700.000			-9.753			-1.393
17800.000			-9.751			-1.393
17902.000			-9.750			-1.393
18001.000			-9.750			-1.393
18100.000			-9.748			-1.393
18201.000			-9.746			-1.392
18300.000			-9.745			-1.392
18400.000			-9.745			-1.392
18501.000			-9.743			-1.392
18600.000			-9.743			-1.392
18701.000			-9.742			-1.392
18802.000			-9.741			-1.392
18900.000			-9.739			-1.391
19000.000			-9.737			-1.391
19100.000			-9.737			-1.391
19200.000			-9.735			-1.391
19301.000			-9.733			-1.390
19400.000			-9.732			-1.390
19501.000			-9.731			-1.390
19602.000			-9.731			-1.390
19700.000			-9.730			-1.390
19800.000			-9.729			-1.390
19901.000			-9.726			-1.389
20000.000			-9.725			-1.389
20100.000			-9.724			-1.389
20201.000			-9.723			-1.389
20301.000			-9.722			-1.389
20401.000			-9.722			-1.389
20501.000			-9.720			-1.389
20600.000			-9.719			-1.388
20700.000			-9.717			-1.388
20801.000			-9.716			-1.388
20900.000			-9.716			-1.388
21000.000			-9.714			-1.388
21102.000			-9.713			-1.388
21201.000			-9.712			-1.387
21300.000			-9.712			-1.387
21401.000			-9.710			-1.387
21500.000			-9.709			-1.387
21600.000			-9.708			-1.387
21701.000			-9.707			-1.387
21801.000			-9.705			-1.386
21901.000			-9.705			-1.386
22002.000			-9.704			-1.386
22100.000			-9.703			-1.386
22200.000			-9.702			-1.386
22300.000			-9.701			-1.386
22400.000			-9.699			-1.386
22501.000			-9.699			-1.386
22601.000			-9.699			-1.386
22701.000			-9.698			-1.385
22802.000			-9.697			-1.385
22900.000			-9.695			-1.385
23000.000			-9.693			-1.385
23101.000			-9.693			-1.385
23200.000			-9.692			-1.385
23300.000			-9.691			-1.384
23401.000			-9.690			-1.384
23501.000			-9.689			-1.384
23601.000			-9.687			-1.384
23701.000			-9.687			-1.384
23800.000			-9.686			-1.384
23900.000			-9.685			-1.384
24001.000			-9.684			-1.383
24100.000			-9.683			-1.383
24200.000			-9.683			-1.383
24302.000			-9.680			-1.383
24401.000			-9.679			-1.383
24500.000			-9.680			-1.383
24601.000			-9.678			-1.383
24700.000			-9.675			-1.382
24800.000			-9.676			-1.382
24901.000			-9.677			-1.382
25000.000			-9.676			-1.382
25101.000			-9.673			-1.382
25202.000			-9.672			-1.382
25300.000			-9.672			-1.382
25400.000			-9.672			-1.382
25500.000			-9.670			-1.381
25600.000			-9.670			-1.381
25701.000			-9.669			-1.381
25800.000			-9.667			-1.381
25901.000			-9.667			-1.381
26002.000			-9.666			-1.381
26100.000			-9.665			-1.381
26200.000			-9.665			-1.381
26301.000			-9.663			-1.380
26400.000			-9.661			-1.380
26500.000			-9.662			-1.380
26601.000			-9.662			-1.380
26701.000			-9.660			-1.380
26801.000			-9.660			-1.380
26902.000			-9.660			-1.380
27000.000			-9.658			-1.380
27100.000			-9.657			-1.380
27201.000			-9.656			-1.379
27300.000			-9.655			-1.379
27400.000			-9.654			-1.379
27501.000			-9.653			-1.379
27601.000			-9.652			-1.379
27701.000			-9.652			-1.379
27801.000			-9.651			-1.379
27900.000			-9.651			-1.379
28000.000			-9.649			-1.378
28101.000			-9.648			-1.378
28200.000			-9.647			-1.378
28300.000			-9.647			-1.378
28402.000			-9.646			-1.378
28501.000			-9.645			-1.378
28600.000			-9.645			-1.378
28700.000			-9.644			-1.378
28800.000			-9.642			-1.377
28901.000			-9.641			-1.377
29000.000			-9.641			-1.377
29100.000			-9.641			-1.377
29202.000			-9.640			-1.377
29301.000			-9.639			-1.377
29400.000			-9.639			-1.377
29501.000			-9.636			-1.377
29600.000			-9.635			-1.376
29700.000			-9.635			-1.376
29801.000			-9.635			-1.376
29900.000			-9.633			-1.376
30001.000			-9.633			-1.376
30102.000			-9.632			-1.376
30200.000			-9.632			-1.376
30300.000			-9.630			-1.376
30401.000			-9.629			-1.376
30500.000			-9.630			-1.376
30600.000			-9.629			-1.376
30701.000			-9.627			-1.375
30801.000			-9.627			-1.375
30901.000			-9.626			-1.375
31001.000			-9.625			-1.375
31100.000			-9.624			-1.375
31200.000			-9.624			-1.375
31301.000			-9.624			-1.375
31400.000			-9.624			-1.375
31500.000			-9.623			-1.375
31602.000			-9.623			-1.375
31701.000			-9.620			-1.374
31800.000			-9.620			-1.374
31900.000			-9.619			-1.374
32000.000			-9.619			-1.374
32101.000			-9.618			-1.374
32200.000			-9.617			-1.374
32301.000			-9.617			-1.374
32402.000			-9.615			-1.374
32501.000			-9.614			-1.373
32600.000			-9.614			-1.373
32701.000			-9.614			-1.373
32800.000			-9.613			-1.373
32900.000			-9.612			-1.373
33001.000			-9.611			-1.373
33101.000			-9.610			-1.373
33201.000			-9.610			-1.373
33301.000			-9.609			-1.373
33400.000			-9.608			-1.373
33500.000			-9.608			-1.373
33601.000			-9.607			-1.372
33700.000			-9.606			-1.372
33800.000			-9.606			-1.372
33902.000			-9.605			-1.372
34001.000			-9.604			-1.372
34100.000			-9.604			-1.372
34201.000			-9.603			-1.372
34300.000			-9.603			-1.372
34400.000			-9.601			-1.372
34501.000			-9.602			-1.372
34600.000			-9.600			-1.371
34701.000			-9.599			-1.371
34802.000			-9.599			-1.371
34900.000			-9.599			-1.371
35000.000			-9.599			-1.371
35100.000			-9.597			-1.371
35200.000			-9.596			-1.371
35301.000			-9.596			-1.371
35400.000			-9.595			-1.371
35500.000			-9.594			-1.371
35602.000			-9.593			-1.370
35701.000			-9.592			-1.370
35800.000			-9.592			-1.370
35901.000			-9.592			-1.370
36000.000			-9.591			-1.370
36100.000			-9.590			-1.370
36201.000			-9.590			-1.370
36300.000			-9.589			-1.370
36401.000			-9.588			-1.370
36502.000			-9.587			-1.370
36600.000			-9.587			-1.370
36700.000			-9.586			-1.369
36801.000			-9.586			-1.369
36900.000			-9.585			-1.369
37000.000			-9.585			-1.369
37101.000			-9.583			-1.369
37201.000			-9.582			-1.369
37301.000			-9.582			-1.369
37401.000			-9.581			-1.369
37500.000			-9.581			-1.369
37600.000			-9.581			-1.369
37701.000			-9.580			-1.369
37800.000			-9.579			-1.368
37900.000			-9.579			-1.368
38002.000			-9.578			-1.368
38101.000			-9.578			-1.368
38200.000			-9.578			-1.368
38300.000			-9.575			-1.368
38400.000			-9.575			-1.368
38501.000			-9.575			-1.368
38600.000			-9.574			-1.368
38700.000			-9.574			-1.368
38802.000			-9.574			-1.368
38901.000			-9.573			-1.368
39001.000			-9.571			-1.367
39101.000			-9.569			-1.367
39200.000			-9.570			-1.367
39300.000			-9.570			-1.367
39401.000			-9.569			-1.367
39500.000			-9.569			-1.367
39600.000			-9.569			-1.367
39702.000			-9.567			-1.367
39801.000			-9.567			-1.367
39900.000			-9.566			-1.367
40001.000			-9.565			-1.366
40100.000			-9.565			-1.366
40200.000			-9.565			-1.366
40301.000			-9.564			-1.366
40400.000			-9.564			-1.366
40501.000			-9.563			-1.366
40602.000			-9.562			-1.366
40700.000			-9.562			-1.366
40800.000			-9.561			-1.366
40901.000			-9.561			-1.366
41000.000			-9.561			-1.366
41100.000			-9.560			-1.366
41201.000			-9.560			-1.366
41301.000			-9.557			-1.365
41402.000			-9.557			-1.365
41500.000			-9.556			-1.365
41600.000			-9.556			-1.365
41701.000			-9.556			-1.365
41800.000			-9.556			-1.365
41900.000			-9.555			-1.365
42001.000			-9.555			-1.365
42101.000			-9.555			-1.365
42201.000			-9.554			-1.365
42301.000			-9.554			-1.365
42400.000			-9.553			-1.365
42500.000			-9.552			-1.365
42601.000			-9.551			-1.364
42700.000			-9.550			-1.364
42800.000			-9.550			-1.364
42902.000			-9.550			-1.364
43001.000			-9.549			-1.364
43100.000			-9.548			-1.364
43201.000			-9.548			-1.364
43300.000			-9.548			-1.364
43400.000			-9.548			-1.364
43501.000			-9.546			-1.364
43600.000			-9.545			-1.364
43701.000			-9.545			-1.364
43802.000			-9.545			-1.364
43900.000			-9.544			-1.363
44000.000			-9.544			-1.363
44101.000			-9.543			-1.363
44200.000			-9.543			-1.363
44300.000			-9.542			-1.363
44401.000			-9.541			-1.363
44501.000			-9.541			-1.363
44602.000			-9.540			-1.363
44700.000			-9.540			-1.363
44800.000			-9.539			-1.363
44901.000			-9.539			-1.363
45000.000			-9.538			-1.363
45100.000			-9.537			-1.362
45201.000			-9.537			-1.362
45301.000			-9.537			-1.362
45401.000			-9.537			-1.362
45501.000			-9.537			-1.362
45600.000			-9.536			-1.362
45700.000			-9.535			-1.362
45801.000			-9.535			-1.362
45900.000			-9.535			-1.362
46000.000			-9.534			-1.362
46102.000			-9.533			-1.362
46201.000			-9.532			-1.362
46300.000			-9.531			-1.362
46401.000			-9.531			-1.362
46500.000			-9.530			-1.361
46600.000			-9.530			-1.361
46701.000			-9.530			-1.361
46800.000			-9.529			-1.361
46901.000			-9.529			-1.361
47002.000			-9.529			-1.361
47100.000			-9.527			-1.361
47200.000			-9.527			-1.361
47301.000			-9.527			-1.361
47400.000			-9.527			-1.361
47500.000			-9.526			-1.361
47602.000			-9.524			-1.361
47701.000			-9.525			-1.361
47802.000			-9.525			-1.361
47900.000			-9.523			-1.360
48000.000			-9.523			-1.360
48101.000			-9.523			-1.360
48200.000			-9.522			-1.360
48300.000			-9.522			-1.360
48401.000			-9.521			-1.360
48501.000			-9.520			-1.360
48601.000			-9.520			-1.360
48701.000			-9.519			-1.360
48800.000			-9.519			-1.360
48900.000			-9.519			-1.360
49001.000			-9.519			-1.360
49100.000			-9.519			-1.360
49200.000			-9.518			-1.360
49302.000			-9.517			-1.360
49401.000			-9.516			-1.359
49500.000			-9.516			-1.359
49601.000			-9.516			-1.359
49700.000			-9.515			-1.359
49800.000			-9.515			-1.359
49901.000			-9.514			-1.359
50000.000			-9.514			-1.359
50101.000			-9.512			-1.359
50202.000			-9.512			-1.359
50300.000			-9.512			-1.359
50400.000			-9.513			-1.359
50501.000			-9.512			-1.359
50600.000			-9.511			-1.359
50700.000			-9.512			-1.359
50802.000			-9.510			-1.359
50901.000			-9.510			-1.359
51002.000			-9.509			-1.358
51100.000			-9.509			-1.358
51200.000			-9.508			-1.358
51301.000			-9.508			-1.358
51400.000			-9.508			-1.358
51500.000			-9.507			-1.358
51602.000			-9.507			-1.358
51701.000			-9.505			-1.358
51800.000			-9.505			-1.358
51901.000			-9.506			-1.358
52000.000			-9.505			-1.358
52100.000			-9.504			-1.358
52201.000			-9.504			-1.358
52300.000			-9.503			-1.358
52401.000			-9.502			-1.357
52502.000			-9.502			-1.357
52600.000			-9.502			-1.357
52700.000			-9.502			-1.357
52801.000			-9.501			-1.357
52900.000			-9.500			-1.357
53000.000			-9.500			-1.357
53101.000			-9.500			-1.357
53201.000			-9.499			-1.357
53301.000			-9.498			-1.357
53401.000			-9.498			-1.357
53500.000			-9.498			-1.357
53600.000			-9.498			-1.357
53701.000			-9.497			-1.357
53800.000			-9.496			-1.357
53900.000			-9.496			-1.357
54002.000			-9.496			-1.357
54101.000			-9.495			-1.356
54200.000			-9.495			-1.356
54300.000			-9.494			-1.356
54400.000			-9.494			-1.356
54501.000			-9.494			-1.356
54600.000			-9.494			-1.356
54700.000			-9.493			-1.356
54802.000			-9.492			-1.356
54901.000			-9.492			-1.356
55000.000			-9.492			-1.356
55101.000			-9.491			-1.356
55200.000			-9.491			-1.356
55300.000			-9.490			-1.356
55401.000			-9.490			-1.356
55500.000			-9.489			-1.356
55601.000			-9.489			-1.356
55702.000			-9.488			-1.355
55801.000			-9.487			-1.355
55900.000			-9.486			-1.355
56001.000			-9.487			-1.355
56100.000			-9.487			-1.355
56200.000			-9.486			-1.355
56301.000			-9.486			-1.355
56401.000			-9.486			-1.355
56501.000			-9.486			-1.355
56602.000			-9.485			-1.355
56700.000			-9.484			-1.355
56800.000			-9.485			-1.355
56901.000			-9.484			-1.355
57000.000			-9.483			-1.355
57100.000			-9.482			-1.355
57201.000			-9.482			-1.355
57301.000			-9.482			-1.355
57402.000			-9.482			-1.355
57500.000			-9.481			-1.354
57600.000			-9.481			-1.354
57701.000			-9.481			-1.354
57800.000			-9.481			-1.354
57900.000			-9.480			-1.354
58001.000			-9.480			-1.354
58101.000			-9.478			-1.354
58201.000			-9.478			-1.354
58301.000			-9.478			-1.354
58400.000			-9.477			-1.354
58500.000			-9.477			-1.354
58601.000			-9.477			-1.354
58700.000			-9.476			-1.354
58800.000			-9.477			-1.354
58902.000			-9.476			-1.354
59001.000			-9.475			-1.354
59100.000			-9.474			-1.353
59201.000			-9.474			-1.353
59300.000			-9.474			-1.353
59400.000			-9.474			-1.353
59501.000			-9.472			-1.353
59600.000			-9.471			-1.353
59701.000			-9.472			-1.353
59802.000			-9.472			-1.353
59901.000			-9.472			-1.353
60000.000			-9.471			-1.353
60101.000			-9.470			-1.353
60200.000			-9.469			-1.353
60300.000			-9.469			-1.353
60401.000			-9.469			-1.353
60501.000			-9.468			-1.353
60602.000			-9.469			-1.353
60701.000			-9.468			-1.353
60800.000			-9.467			-1.352
60901.000			-9.466			-1.352
61000.000			-9.467			-1.352
61100.000			-9.467			-1.352
61201.000			-9.466			-1.352
61301.000			-9.465			-1.352
61401.000			-9.465			-1.352
61501.000			-9.465			-1.352
61600.000			-9.464			-1.352
61700.000			-9.464			-1.352
61801.000			-9.464			-1.352
61900.000			-9.463			-1.352
62000.000			-9.462			-1.352
62102.000			-9.462			-1.352
62201.000			-9.462			-1.352
62301.000			-9.461			-1.352
62401.000			-9.462			-1.352
62500.000			-9.461			-1.352
62600.000			-9.461			-1.352
62701.000			-9.461			-1.352
62800.000			-9.460			-1.351
62900.000			-9.460			-1.351
63002.000			-9.460			-1.351
63101.000			-9.459			-1.351
63200.000			-9.459			-1.351
63301.000			-9.458			-1.351
63400.000			-9.458			-1.351
63500.000			-9.458			-1.351
63601.000			-9.456			-1.351
63701.000			-9.456			-1.351
63802.000			-9.456			-1.351
63901.000			-9.455			-1.351
64000.000			-9.455			-1.351
64101.000			-9.455			-1.351
64200.000			-9.455			-1.351
64300.000			-9.454			-1.351
64401.000			-9.454			-1.351
64501.000			-9.453			-1.350
64601.000			-9.453			-1.350
64702.000			-9.452			-1.350
64800.000			-9.452			-1.350
64900.000			-9.451			-1.350
65001.000			-9.452			-1.350
65100.000			-9.452			-1.350
65200.000			-9.451			-1.350
65301.000			-9.451			-1.350
65401.000			-9.450			-1.350
65501.000			-9.450			-1.350
65601.000			-9.450			-1.350
65700.000			-9.449			-1.350
65800.000			-9.449			-1.350
65901.000			-9.449			-1.350
66000.000			-9.449			-1.350
66100.000			-9.447			-1.350
66202.000			-9.447			-1.350
66301.000			-9.447			-1.350
66400.000			-9.446			-1.349
66501.000			-9.446			-1.349
66600.000			-9.446			-1.349
66700.000			-9.446			-1.349
66801.000			-9.445			-1.349
66900.000			-9.444			-1.349
67002.000			-9.444			-1.349
67101.000			-9.443			-1.349
67200.000			-9.444			-1.349
67301.000			-9.444			-1.349
67400.000			-9.443			-1.349
67500.000			-9.442			-1.349
67601.000			-9.442			-1.349
67700.000			-9.442			-1.349
67800.000			-9.442			-1.349
67902.000			-9.442			-1.349
68001.000			-9.441			-1.349
68100.000			-9.440			-1.349
68201.000			-9.440			-1.349
68300.000			-9.440			-1.349
68400.000			-9.440			-1.349
68501.000			-9.439			-1.348
68600.000			-9.439			-1.348
68701.000			-9.438			-1.348
68802.000			-9.438			-1.348
68900.000			-9.438			-1.348
69000.000			-9.437			-1.348
69101.000			-9.437			-1.348
69200.000			-9.437			-1.348
69300.000			-9.436			-1.348
69401.000			-9.436			-1.348
69501.000			-9.436			-1.348
69601.000			-9.436			-1.348
69701.000			-9.436			-1.348
69800.000			-9.435			-1.348
69900.000			-9.435			-1.348
70001.000			-9.434			-1.348
70100.000			-9.433			-1.348
70200.000			-9.433			-1.348
70302.000			-9.434			-1.348
70401.000			-9.432			-1.347
70501.000			-9.433			-1.348
70600.000			-9.432			-1.347
70700.000			-9.432			-1.347
70801.000			-9.431			-1.347
70900.000			-9.430			-1.347
71000.000			-9.430			-1.347
