# Acquired on 20/12/2023 12:02:47 
# SPIDER: Creep_5mm_07714532B-1
# CREEP MEASUREMENT

# time [ms]		force [N]		stiffness [N/mm]
0.000			-16.756			-3.351
100.000			-19.687			-3.937
200.000			-19.950			-3.990
302.000			-19.865			-3.973
401.000			-19.774			-3.955
500.000			-19.705			-3.941
601.000			-19.646			-3.929
700.000			-19.595			-3.919
800.000			-19.514			-3.903
900.000			-19.480			-3.896
1000.000			-19.447			-3.889
1102.000			-19.419			-3.884
1201.000			-19.391			-3.878
1300.000			-19.366			-3.873
1401.000			-19.342			-3.868
1500.000			-19.320			-3.864
1600.000			-19.279			-3.856
1701.000			-19.261			-3.852
1801.000			-19.244			-3.849
1901.000			-19.227			-3.845
2002.000			-19.210			-3.842
2100.000			-19.195			-3.839
2200.000			-19.181			-3.836
2301.000			-19.152			-3.830
2400.000			-19.139			-3.828
2500.000			-19.127			-3.825
2602.000			-19.115			-3.823
2701.000			-19.104			-3.821
2800.000			-19.092			-3.818
2901.000			-19.080			-3.816
3000.000			-19.059			-3.812
3100.000			-19.049			-3.810
3201.000			-19.039			-3.808
3300.000			-19.029			-3.806
3401.000			-19.020			-3.804
3502.000			-19.012			-3.802
3600.000			-19.004			-3.801
3700.000			-18.986			-3.797
3801.000			-18.978			-3.796
3900.000			-18.969			-3.794
4000.000			-18.961			-3.792
4102.000			-18.954			-3.791
4201.000			-18.947			-3.789
4302.000			-18.940			-3.788
4400.000			-18.933			-3.787
4500.000			-18.918			-3.784
4601.000			-18.912			-3.782
4700.000			-18.905			-3.781
4800.000			-18.899			-3.780
4902.000			-18.892			-3.778
5001.000			-18.887			-3.777
5100.000			-18.880			-3.776
5201.000			-18.868			-3.774
5300.000			-18.862			-3.772
5400.000			-18.857			-3.771
5501.000			-18.851			-3.770
5600.000			-18.845			-3.769
5701.000			-18.839			-3.768
5802.000			-18.834			-3.767
5900.000			-18.825			-3.765
6000.000			-18.819			-3.764
6101.000			-18.813			-3.763
6200.000			-18.808			-3.762
6300.000			-18.802			-3.760
6401.000			-18.798			-3.760
6501.000			-18.794			-3.759
6601.000			-18.790			-3.758
6701.000			-18.780			-3.756
6800.000			-18.776			-3.755
6900.000			-18.772			-3.754
7001.000			-18.767			-3.753
7100.000			-18.762			-3.752
7200.000			-18.758			-3.752
7302.000			-18.754			-3.751
7401.000			-18.744			-3.749
7501.000			-18.740			-3.748
7600.000			-18.737			-3.747
7700.000			-18.734			-3.747
7801.000			-18.731			-3.746
7900.000			-18.725			-3.745
8000.000			-18.720			-3.744
8102.000			-18.714			-3.743
8201.000			-18.710			-3.742
8300.000			-18.705			-3.741
8401.000			-18.702			-3.740
8500.000			-18.699			-3.740
8600.000			-18.695			-3.739
8701.000			-18.692			-3.738
8800.000			-18.688			-3.738
8901.000			-18.682			-3.736
9002.000			-18.679			-3.736
9100.000			-18.674			-3.735
9200.000			-18.671			-3.734
9301.000			-18.667			-3.733
9400.000			-18.666			-3.733
9500.000			-18.662			-3.732
9601.000			-18.655			-3.731
9701.000			-18.651			-3.730
9801.000			-18.649			-3.730
9901.000			-18.646			-3.729
10000.000			-18.643			-3.729
10100.000			-18.640			-3.728
10201.000			-18.637			-3.727
10300.000			-18.633			-3.727
10400.000			-18.627			-3.725
10502.000			-18.624			-3.725
10601.000			-18.622			-3.724
10701.000			-18.619			-3.724
10800.000			-18.616			-3.723
10900.000			-18.613			-3.723
11001.000			-18.610			-3.722
11100.000			-18.606			-3.721
11201.000			-18.603			-3.721
11302.000			-18.600			-3.720
11400.000			-18.597			-3.719
11500.000			-18.595			-3.719
11601.000			-18.593			-3.719
11700.000			-18.590			-3.718
11800.000			-18.585			-3.717
11901.000			-18.581			-3.716
12001.000			-18.578			-3.716
12101.000			-18.576			-3.715
12201.000			-18.574			-3.715
12300.000			-18.571			-3.714
12400.000			-18.569			-3.714
12501.000			-18.565			-3.713
12600.000			-18.563			-3.713
12700.000			-18.560			-3.712
12802.000			-18.558			-3.712
12901.000			-18.555			-3.711
13001.000			-18.552			-3.710
13101.000			-18.550			-3.710
13200.000			-18.548			-3.710
13300.000			-18.544			-3.709
13401.000			-18.541			-3.708
13500.000			-18.538			-3.708
13600.000			-18.536			-3.707
13702.000			-18.534			-3.707
13801.000			-18.531			-3.706
13901.000			-18.529			-3.706
14000.000			-18.525			-3.705
14100.000			-18.523			-3.705
14201.000			-18.521			-3.704
14300.000			-18.519			-3.704
14400.000			-18.516			-3.703
14502.000			-18.514			-3.703
14601.000			-18.513			-3.703
14700.000			-18.512			-3.702
14801.000			-18.508			-3.702
14900.000			-18.505			-3.701
15000.000			-18.502			-3.700
15101.000			-18.501			-3.700
15200.000			-18.500			-3.700
15301.000			-18.498			-3.700
15402.000			-18.495			-3.699
15500.000			-18.491			-3.698
15600.000			-18.488			-3.698
15701.000			-18.486			-3.697
15800.000			-18.483			-3.697
15900.000			-18.482			-3.696
16001.000			-18.481			-3.696
16101.000			-18.479			-3.696
16201.000			-18.476			-3.695
16301.000			-18.474			-3.695
16400.000			-18.471			-3.694
16500.000			-18.470			-3.694
16601.000			-18.468			-3.694
16700.000			-18.466			-3.693
16800.000			-18.465			-3.693
16902.000			-18.462			-3.692
17001.000			-18.459			-3.692
17101.000			-18.458			-3.692
17200.000			-18.455			-3.691
17300.000			-18.453			-3.691
17401.000			-18.452			-3.690
17500.000			-18.450			-3.690
17600.000			-18.449			-3.690
17702.000			-18.446			-3.689
17801.000			-18.444			-3.689
17900.000			-18.442			-3.688
18001.000			-18.440			-3.688
18100.000			-18.438			-3.688
18200.000			-18.437			-3.687
18301.000			-18.435			-3.687
18400.000			-18.431			-3.686
18501.000			-18.430			-3.686
18602.000			-18.429			-3.686
18700.000			-18.427			-3.685
18800.000			-18.425			-3.685
18901.000			-18.423			-3.685
19000.000			-18.421			-3.684
19100.000			-18.421			-3.684
19201.000			-18.418			-3.684
19301.000			-18.416			-3.683
19401.000			-18.415			-3.683
19502.000			-18.413			-3.683
19600.000			-18.411			-3.682
19700.000			-18.409			-3.682
19801.000			-18.408			-3.682
19900.000			-18.405			-3.681
20000.000			-18.403			-3.681
20102.000			-18.401			-3.680
20201.000			-18.400			-3.680
20301.000			-18.399			-3.680
20400.000			-18.397			-3.679
20500.000			-18.396			-3.679
20601.000			-18.392			-3.678
20700.000			-18.391			-3.678
20800.000			-18.389			-3.678
20901.000			-18.388			-3.678
21001.000			-18.387			-3.677
21101.000			-18.385			-3.677
21201.000			-18.384			-3.677
21300.000			-18.383			-3.677
21400.000			-18.380			-3.676
21501.000			-18.379			-3.676
21600.000			-18.377			-3.675
21700.000			-18.376			-3.675
21802.000			-18.374			-3.675
21901.000			-18.372			-3.674
22000.000			-18.372			-3.674
22101.000			-18.369			-3.674
22200.000			-18.367			-3.673
22300.000			-18.365			-3.673
22401.000			-18.364			-3.673
22500.000			-18.363			-3.673
22601.000			-18.362			-3.672
22702.000			-18.360			-3.672
22800.000			-18.357			-3.671
22900.000			-18.356			-3.671
23001.000			-18.356			-3.671
23100.000			-18.355			-3.671
23200.000			-18.352			-3.670
23300.000			-18.350			-3.670
23401.000			-18.350			-3.670
23502.000			-18.348			-3.670
23600.000			-18.346			-3.669
23700.000			-18.344			-3.669
23801.000			-18.343			-3.669
23900.000			-18.342			-3.668
24000.000			-18.341			-3.668
24101.000			-18.340			-3.668
24201.000			-18.338			-3.668
24301.000			-18.335			-3.667
24401.000			-18.334			-3.667
24500.000			-18.334			-3.667
24600.000			-18.333			-3.667
24701.000			-18.331			-3.666
24800.000			-18.329			-3.666
24900.000			-18.327			-3.665
25002.000			-18.327			-3.665
25101.000			-18.325			-3.665
25200.000			-18.323			-3.665
25301.000			-18.322			-3.664
25400.000			-18.321			-3.664
25500.000			-18.320			-3.664
25601.000			-18.318			-3.664
25700.000			-18.316			-3.663
25801.000			-18.315			-3.663
25902.000			-18.314			-3.663
26000.000			-18.312			-3.662
26100.000			-18.310			-3.662
26201.000			-18.310			-3.662
26300.000			-18.309			-3.662
26400.000			-18.308			-3.662
26500.000			-18.305			-3.661
26601.000			-18.304			-3.661
26702.000			-18.304			-3.661
26800.000			-18.303			-3.661
26900.000			-18.301			-3.660
27001.000			-18.299			-3.660
27100.000			-18.298			-3.660
27200.000			-18.298			-3.660
27301.000			-18.296			-3.659
27401.000			-18.294			-3.659
27501.000			-18.292			-3.658
27601.000			-18.292			-3.658
27700.000			-18.290			-3.658
27800.000			-18.290			-3.658
27901.000			-18.289			-3.658
28000.000			-18.287			-3.657
28100.000			-18.285			-3.657
28202.000			-18.284			-3.657
28301.000			-18.284			-3.657
28400.000			-18.283			-3.657
28501.000			-18.281			-3.656
28600.000			-18.280			-3.656
28700.000			-18.279			-3.656
28801.000			-18.277			-3.655
28900.000			-18.276			-3.655
29001.000			-18.275			-3.655
29102.000			-18.273			-3.655
29200.000			-18.273			-3.655
29300.000			-18.272			-3.654
29401.000			-18.270			-3.654
29500.000			-18.269			-3.654
29600.000			-18.268			-3.654
29700.000			-18.266			-3.653
29800.000			-18.266			-3.653
29902.000			-18.264			-3.653
30001.000			-18.264			-3.653
30100.000			-18.262			-3.652
30201.000			-18.261			-3.652
30300.000			-18.259			-3.652
30400.000			-18.259			-3.652
30501.000			-18.258			-3.652
30600.000			-18.257			-3.651
30701.000			-18.256			-3.651
30802.000			-18.255			-3.651
30900.000			-18.253			-3.651
31000.000			-18.252			-3.650
31101.000			-18.250			-3.650
31200.000			-18.250			-3.650
31300.000			-18.249			-3.650
31401.000			-18.248			-3.650
31501.000			-18.247			-3.649
31601.000			-18.246			-3.649
31701.000			-18.244			-3.649
31800.000			-18.243			-3.649
31900.000			-18.243			-3.649
32001.000			-18.242			-3.648
32100.000			-18.241			-3.648
32200.000			-18.240			-3.648
32302.000			-18.238			-3.648
32401.000			-18.236			-3.647
32500.000			-18.235			-3.647
32601.000			-18.234			-3.647
32700.000			-18.233			-3.647
32800.000			-18.233			-3.647
32900.000			-18.233			-3.647
33000.000			-18.231			-3.646
33102.000			-18.229			-3.646
33201.000			-18.228			-3.646
33300.000			-18.226			-3.645
33401.000			-18.226			-3.645
33500.000			-18.226			-3.645
33600.000			-18.225			-3.645
33701.000			-18.223			-3.645
33801.000			-18.222			-3.644
33901.000			-18.221			-3.644
34001.000			-18.220			-3.644
34100.000			-18.219			-3.644
34200.000			-18.218			-3.644
34301.000			-18.217			-3.643
34400.000			-18.217			-3.643
34500.000			-18.217			-3.643
34602.000			-18.214			-3.643
34701.000			-18.213			-3.643
34800.000			-18.213			-3.643
34901.000			-18.211			-3.642
35000.000			-18.211			-3.642
35100.000			-18.210			-3.642
35201.000			-18.208			-3.642
35300.000			-18.207			-3.641
35401.000			-18.207			-3.641
35502.000			-18.206			-3.641
35600.000			-18.205			-3.641
35700.000			-18.203			-3.641
35801.000			-18.203			-3.641
35900.000			-18.201			-3.640
36000.000			-18.200			-3.640
36100.000			-18.200			-3.640
36201.000			-18.199			-3.640
36302.000			-18.198			-3.640
36400.000			-18.197			-3.639
36500.000			-18.196			-3.639
36601.000			-18.195			-3.639
36700.000			-18.194			-3.639
36800.000			-18.193			-3.639
36901.000			-18.192			-3.638
37001.000			-18.191			-3.638
37101.000			-18.191			-3.638
37201.000			-18.190			-3.638
37300.000			-18.189			-3.638
37400.000			-18.188			-3.638
37501.000			-18.186			-3.637
37600.000			-18.186			-3.637
37700.000			-18.185			-3.637
37802.000			-18.184			-3.637
37901.000			-18.182			-3.636
38000.000			-18.181			-3.636
38101.000			-18.181			-3.636
38200.000			-18.180			-3.636
38300.000			-18.179			-3.636
38401.000			-18.179			-3.636
38500.000			-18.179			-3.636
38601.000			-18.177			-3.635
38702.000			-18.175			-3.635
38800.000			-18.175			-3.635
38900.000			-18.173			-3.635
39001.000			-18.173			-3.635
39100.000			-18.172			-3.634
39200.000			-18.171			-3.634
39300.000			-18.170			-3.634
39400.000			-18.169			-3.634
39502.000			-18.169			-3.634
39601.000			-18.168			-3.634
39700.000			-18.167			-3.633
39801.000			-18.166			-3.633
39900.000			-18.165			-3.633
40000.000			-18.165			-3.633
40101.000			-18.164			-3.633
40200.000			-18.163			-3.633
40301.000			-18.163			-3.633
40402.000			-18.162			-3.632
40500.000			-18.160			-3.632
40600.000			-18.160			-3.632
40701.000			-18.159			-3.632
40800.000			-18.158			-3.632
40900.000			-18.158			-3.632
41002.000			-18.157			-3.631
41101.000			-18.156			-3.631
41201.000			-18.154			-3.631
41301.000			-18.153			-3.631
41400.000			-18.152			-3.630
41500.000			-18.152			-3.630
41601.000			-18.151			-3.630
41700.000			-18.150			-3.630
41801.000			-18.150			-3.630
41902.000			-18.148			-3.630
42000.000			-18.149			-3.630
42100.000			-18.148			-3.630
42201.000			-18.146			-3.629
42300.000			-18.145			-3.629
42400.000			-18.145			-3.629
42500.000			-18.144			-3.629
42601.000			-18.144			-3.629
42702.000			-18.141			-3.628
42801.000			-18.141			-3.628
42900.000			-18.140			-3.628
43001.000			-18.140			-3.628
43100.000			-18.139			-3.628
43200.000			-18.139			-3.628
43301.000			-18.137			-3.627
43401.000			-18.136			-3.627
43501.000			-18.135			-3.627
43601.000			-18.134			-3.627
43700.000			-18.134			-3.627
43800.000			-18.133			-3.627
43901.000			-18.133			-3.627
44000.000			-18.132			-3.626
44100.000			-18.132			-3.626
44202.000			-18.130			-3.626
44301.000			-18.130			-3.626
44400.000			-18.129			-3.626
44501.000			-18.128			-3.626
44600.000			-18.127			-3.625
44700.000			-18.126			-3.625
44801.000			-18.127			-3.625
44900.000			-18.125			-3.625
45001.000			-18.124			-3.625
45102.000			-18.125			-3.625
45201.000			-18.123			-3.625
45300.000			-18.122			-3.624
45401.000			-18.122			-3.624
45500.000			-18.121			-3.624
45600.000			-18.119			-3.624
45700.000			-18.119			-3.624
45801.000			-18.119			-3.624
45902.000			-18.116			-3.623
46001.000			-18.115			-3.623
46100.000			-18.116			-3.623
46201.000			-18.116			-3.623
46300.000			-18.115			-3.623
46400.000			-18.113			-3.623
46501.000			-18.112			-3.622
46601.000			-18.112			-3.622
46701.000			-18.111			-3.622
46801.000			-18.110			-3.622
46900.000			-18.108			-3.622
47000.000			-18.108			-3.622
47101.000			-18.108			-3.622
47200.000			-18.106			-3.621
47300.000			-18.106			-3.621
47402.000			-18.105			-3.621
47501.000			-18.105			-3.621
47600.000			-18.105			-3.621
47701.000			-18.104			-3.621
47800.000			-18.103			-3.621
47900.000			-18.101			-3.620
48001.000			-18.100			-3.620
48100.000			-18.101			-3.620
48201.000			-18.100			-3.620
48302.000			-18.100			-3.620
48400.000			-18.099			-3.620
48500.000			-18.097			-3.619
48601.000			-18.096			-3.619
48700.000			-18.095			-3.619
48800.000			-18.095			-3.619
48900.000			-18.094			-3.619
49001.000			-18.094			-3.619
49102.000			-18.093			-3.619
49200.000			-18.093			-3.619
49300.000			-18.092			-3.618
49401.000			-18.092			-3.618
49500.000			-18.091			-3.618
49600.000			-18.090			-3.618
49701.000			-18.088			-3.618
49801.000			-18.087			-3.617
49901.000			-18.088			-3.618
50001.000			-18.087			-3.617
50100.000			-18.087			-3.617
50200.000			-18.085			-3.617
50301.000			-18.085			-3.617
50400.000			-18.084			-3.617
50500.000			-18.084			-3.617
50602.000			-18.084			-3.617
50701.000			-18.083			-3.617
50800.000			-18.081			-3.616
50901.000			-18.080			-3.616
51000.000			-18.079			-3.616
51100.000			-18.080			-3.616
51201.000			-18.079			-3.616
51300.000			-18.079			-3.616
51401.000			-18.078			-3.616
51502.000			-18.077			-3.615
51600.000			-18.076			-3.615
51700.000			-18.075			-3.615
51801.000			-18.075			-3.615
51900.000			-18.073			-3.615
52000.000			-18.074			-3.615
52100.000			-18.073			-3.615
52201.000			-18.071			-3.614
52302.000			-18.070			-3.614
52400.000			-18.069			-3.614
52500.000			-18.069			-3.614
52601.000			-18.068			-3.614
52700.000			-18.068			-3.614
52800.000			-18.067			-3.613
52901.000			-18.067			-3.613
53001.000			-18.066			-3.613
53101.000			-18.065			-3.613
53201.000			-18.064			-3.613
53300.000			-18.064			-3.613
53400.000			-18.064			-3.613
53501.000			-18.064			-3.613
53600.000			-18.063			-3.613
53700.000			-18.062			-3.612
53802.000			-18.062			-3.612
53901.000			-18.061			-3.612
54000.000			-18.060			-3.612
54101.000			-18.059			-3.612
54200.000			-18.059			-3.612
54300.000			-18.058			-3.612
54401.000			-18.057			-3.611
54500.000			-18.056			-3.611
54601.000			-18.056			-3.611
54702.000			-18.055			-3.611
54801.000			-18.054			-3.611
54900.000			-18.053			-3.611
55001.000			-18.054			-3.611
55100.000			-18.053			-3.611
55200.000			-18.051			-3.610
55300.000			-18.050			-3.610
55401.000			-18.051			-3.610
55502.000			-18.050			-3.610
55601.000			-18.049			-3.610
55700.000			-18.049			-3.610
55801.000			-18.049			-3.610
55900.000			-18.047			-3.609
56000.000			-18.046			-3.609
56101.000			-18.046			-3.609
56201.000			-18.046			-3.609
56301.000			-18.045			-3.609
56402.000			-18.043			-3.609
56500.000			-18.043			-3.609
56600.000			-18.043			-3.609
56701.000			-18.042			-3.608
56800.000			-18.041			-3.608
56900.000			-18.041			-3.608
57001.000			-18.041			-3.608
57101.000			-18.039			-3.608
57201.000			-18.039			-3.608
57301.000			-18.039			-3.608
57400.000			-18.038			-3.608
57500.000			-18.038			-3.608
57601.000			-18.037			-3.607
57700.000			-18.035			-3.607
57800.000			-18.035			-3.607
57902.000			-18.035			-3.607
58001.000			-18.034			-3.607
58100.000			-18.033			-3.607
58201.000			-18.033			-3.607
58300.000			-18.032			-3.606
58400.000			-18.032			-3.606
58500.000			-18.032			-3.606
58600.000			-18.031			-3.606
58702.000			-18.031			-3.606
58801.000			-18.029			-3.606
58900.000			-18.029			-3.606
59001.000			-18.029			-3.606
59100.000			-18.027			-3.605
59200.000			-18.026			-3.605
59301.000			-18.027			-3.605
59400.000			-18.026			-3.605
59501.000			-18.024			-3.605
59602.000			-18.025			-3.605
59700.000			-18.024			-3.605
59800.000			-18.023			-3.605
59901.000			-18.022			-3.604
60000.000			-18.021			-3.604
60100.000			-18.021			-3.604
60202.000			-18.020			-3.604
60301.000			-18.020			-3.604
60400.000			-18.020			-3.604
60501.000			-18.019			-3.604
60600.000			-18.019			-3.604
60700.000			-18.019			-3.604
60801.000			-18.017			-3.603
60900.000			-18.017			-3.603
61001.000			-18.015			-3.603
61102.000			-18.015			-3.603
61200.000			-18.014			-3.603
61300.000			-18.014			-3.603
61401.000			-18.014			-3.603
61500.000			-18.013			-3.603
61600.000			-18.013			-3.603
61700.000			-18.013			-3.603
61801.000			-18.011			-3.602
61902.000			-18.011			-3.602
62000.000			-18.010			-3.602
62100.000			-18.009			-3.602
62201.000			-18.008			-3.602
62300.000			-18.007			-3.601
62400.000			-18.007			-3.601
62501.000			-18.007			-3.601
62601.000			-18.006			-3.601
62701.000			-18.006			-3.601
62801.000			-18.006			-3.601
62900.000			-18.005			-3.601
63000.000			-18.005			-3.601
63101.000			-18.004			-3.601
63200.000			-18.003			-3.601
63300.000			-18.001			-3.600
63402.000			-18.002			-3.600
63501.000			-18.001			-3.600
63600.000			-18.001			-3.600
63701.000			-18.000			-3.600
63800.000			-18.000			-3.600
63900.000			-17.999			-3.600
64001.000			-17.999			-3.600
64100.000			-17.998			-3.600
64201.000			-17.998			-3.600
64302.000			-17.998			-3.600
64400.000			-17.997			-3.599
64500.000			-17.996			-3.599
64601.000			-17.995			-3.599
64700.000			-17.995			-3.599
64800.000			-17.994			-3.599
64900.000			-17.993			-3.599
65001.000			-17.992			-3.598
65102.000			-17.992			-3.598
65201.000			-17.992			-3.598
65300.000			-17.992			-3.598
65401.000			-17.990			-3.598
65500.000			-17.990			-3.598
65600.000			-17.990			-3.598
65701.000			-17.989			-3.598
65800.000			-17.989			-3.598
65901.000			-17.988			-3.598
66002.000			-17.987			-3.597
66100.000			-17.987			-3.597
66200.000			-17.987			-3.597
66301.000			-17.986			-3.597
66400.000			-17.985			-3.597
66500.000			-17.984			-3.597
66601.000			-17.984			-3.597
66701.000			-17.983			-3.597
66801.000			-17.983			-3.597
66902.000			-17.982			-3.596
67000.000			-17.982			-3.596
67100.000			-17.981			-3.596
67201.000			-17.980			-3.596
67300.000			-17.980			-3.596
67400.000			-17.980			-3.596
67501.000			-17.979			-3.596
67601.000			-17.979			-3.596
67701.000			-17.979			-3.596
67801.000			-17.978			-3.596
67900.000			-17.978			-3.596
68000.000			-17.977			-3.595
68100.000			-17.976			-3.595
68200.000			-17.976			-3.595
68301.000			-17.975			-3.595
68400.000			-17.973			-3.595
68501.000			-17.974			-3.595
68602.000			-17.974			-3.595
68700.000			-17.973			-3.595
68800.000			-17.973			-3.595
