# Acquired on 09/01/2024 14:54:26 
# SPIDER: Creep_-8mm_07714532B-1
# CREEP MEASUREMENT

# time [ms]		force [N]		stiffness [N/mm]
0.000			31.585			-3.948
101.000			32.727			-4.091
200.000			33.073			-4.134
301.000			32.982			-4.123
401.000			32.841			-4.105
500.000			32.728			-4.091
600.000			32.634			-4.079
701.000			32.552			-4.069
800.000			32.415			-4.052
900.000			32.357			-4.045
1002.000			32.305			-4.038
1101.000			32.256			-4.032
1200.000			32.211			-4.026
1301.000			32.169			-4.021
1400.000			32.130			-4.016
1500.000			32.059			-4.007
1601.000			32.026			-4.003
1701.000			31.995			-3.999
1801.000			31.965			-3.996
1901.000			31.938			-3.992
2000.000			31.911			-3.989
2100.000			31.886			-3.986
2200.000			31.838			-3.980
2300.000			31.815			-3.977
2401.000			31.793			-3.974
2501.000			31.772			-3.972
2601.000			31.751			-3.969
2701.000			31.731			-3.966
2800.000			31.712			-3.964
2900.000			31.676			-3.960
3001.000			31.659			-3.957
3100.000			31.643			-3.955
3201.000			31.626			-3.953
3302.000			31.609			-3.951
3400.000			31.593			-3.949
3500.000			31.579			-3.947
3601.000			31.565			-3.946
3700.000			31.537			-3.942
3800.000			31.522			-3.940
3901.000			31.509			-3.939
4001.000			31.496			-3.937
4101.000			31.484			-3.936
4201.000			31.471			-3.934
4300.000			31.460			-3.932
4400.000			31.435			-3.929
4501.000			31.423			-3.928
4600.000			31.412			-3.927
4701.000			31.401			-3.925
4802.000			31.390			-3.924
4900.000			31.380			-3.922
5000.000			31.369			-3.921
5101.000			31.349			-3.919
5200.000			31.339			-3.917
5300.000			31.331			-3.916
5400.000			31.320			-3.915
5501.000			31.310			-3.914
5602.000			31.301			-3.913
5700.000			31.293			-3.912
5800.000			31.274			-3.909
5901.000			31.265			-3.908
6000.000			31.258			-3.907
6100.000			31.249			-3.906
6202.000			31.241			-3.905
6301.000			31.232			-3.904
6400.000			31.224			-3.903
6501.000			31.216			-3.902
6600.000			31.200			-3.900
6700.000			31.192			-3.899
6801.000			31.185			-3.898
6900.000			31.179			-3.897
7001.000			31.171			-3.896
7102.000			31.164			-3.895
7200.000			31.157			-3.895
7300.000			31.142			-3.893
7401.000			31.136			-3.892
7500.000			31.129			-3.891
7600.000			31.123			-3.890
7702.000			31.116			-3.890
7801.000			31.109			-3.889
7900.000			31.102			-3.888
8001.000			31.090			-3.886
8100.000			31.085			-3.886
8200.000			31.078			-3.885
8301.000			31.071			-3.884
8400.000			31.064			-3.883
8502.000			31.059			-3.882
8601.000			31.054			-3.882
8700.000			31.042			-3.880
8801.000			31.036			-3.880
8900.000			31.031			-3.879
9000.000			31.025			-3.878
9101.000			31.019			-3.877
9201.000			31.014			-3.877
9301.000			31.008			-3.876
9401.000			31.002			-3.875
9500.000			30.992			-3.874
9600.000			30.986			-3.873
9701.000			30.981			-3.873
9800.000			30.976			-3.872
9900.000			30.971			-3.871
10002.000			30.966			-3.871
10101.000			30.961			-3.870
10200.000			30.951			-3.869
10301.000			30.945			-3.868
10400.000			30.941			-3.868
10500.000			30.936			-3.867
10601.000			30.931			-3.866
10700.000			30.925			-3.866
10801.000			30.920			-3.865
10902.000			30.913			-3.864
11000.000			30.909			-3.864
11100.000			30.904			-3.863
11201.000			30.900			-3.862
11300.000			30.895			-3.862
11400.000			30.890			-3.861
11501.000			30.886			-3.861
11601.000			30.877			-3.860
11702.000			30.874			-3.859
11800.000			30.870			-3.859
11900.000			30.864			-3.858
12001.000			30.860			-3.857
12100.000			30.856			-3.857
12200.000			30.852			-3.856
12301.000			30.848			-3.856
12401.000			30.839			-3.855
12501.000			30.835			-3.854
12601.000			30.833			-3.854
12700.000			30.829			-3.854
12800.000			30.825			-3.853
12901.000			30.820			-3.853
13000.000			30.816			-3.852
13100.000			30.808			-3.851
13202.000			30.805			-3.851
13301.000			30.801			-3.850
13400.000			30.797			-3.850
13501.000			30.793			-3.849
13600.000			30.790			-3.849
13700.000			30.786			-3.848
13801.000			30.779			-3.847
13901.000			30.775			-3.847
14001.000			30.772			-3.846
14102.000			30.768			-3.846
14200.000			30.764			-3.846
14300.000			30.761			-3.845
14401.000			30.759			-3.845
14500.000			30.751			-3.844
14600.000			30.747			-3.843
14702.000			30.745			-3.843
14801.000			30.742			-3.843
14902.000			30.738			-3.842
15000.000			30.734			-3.842
15100.000			30.731			-3.841
15201.000			30.728			-3.841
15300.000			30.722			-3.840
15400.000			30.719			-3.840
15501.000			30.715			-3.839
15601.000			30.711			-3.839
15701.000			30.708			-3.838
15801.000			30.705			-3.838
15900.000			30.701			-3.838
16000.000			30.695			-3.837
16101.000			30.692			-3.836
16200.000			30.689			-3.836
16300.000			30.687			-3.836
16402.000			30.683			-3.835
16501.000			30.680			-3.835
16600.000			30.678			-3.835
16701.000			30.671			-3.834
16800.000			30.669			-3.834
16900.000			30.667			-3.833
17001.000			30.664			-3.833
17101.000			30.660			-3.832
17201.000			30.656			-3.832
17302.000			30.654			-3.832
17400.000			30.648			-3.831
17500.000			30.646			-3.831
17601.000			30.642			-3.830
17700.000			30.640			-3.830
17800.000			30.637			-3.830
17902.000			30.633			-3.829
18001.000			30.630			-3.829
18100.000			30.625			-3.828
18200.000			30.622			-3.828
18300.000			30.620			-3.827
18401.000			30.618			-3.827
18500.000			30.615			-3.827
18600.000			30.611			-3.826
18702.000			30.609			-3.826
18801.000			30.606			-3.826
18900.000			30.601			-3.825
19001.000			30.599			-3.825
19100.000			30.597			-3.825
19200.000			30.593			-3.824
19301.000			30.591			-3.824
19400.000			30.588			-3.824
19501.000			30.586			-3.823
19602.000			30.580			-3.823
19700.000			30.579			-3.822
19800.000			30.577			-3.822
19901.000			30.574			-3.822
20000.000			30.571			-3.821
20100.000			30.569			-3.821
20201.000			30.566			-3.821
20301.000			30.562			-3.820
20401.000			30.559			-3.820
20501.000			30.556			-3.819
20600.000			30.553			-3.819
20700.000			30.552			-3.819
20801.000			30.550			-3.819
20900.000			30.546			-3.818
21000.000			30.543			-3.818
21102.000			30.540			-3.817
21201.000			30.538			-3.817
21300.000			30.536			-3.817
21400.000			30.534			-3.817
21500.000			30.530			-3.816
21601.000			30.528			-3.816
21700.000			30.525			-3.816
21800.000			30.522			-3.815
21902.000			30.519			-3.815
22001.000			30.516			-3.814
22100.000			30.514			-3.814
22201.000			30.512			-3.814
22300.000			30.510			-3.814
22400.000			30.508			-3.813
22501.000			30.503			-3.813
22601.000			30.501			-3.813
22701.000			30.499			-3.812
22801.000			30.497			-3.812
22900.000			30.495			-3.812
23000.000			30.492			-3.812
23101.000			30.490			-3.811
23200.000			30.487			-3.811
23300.000			30.484			-3.810
23402.000			30.483			-3.810
23501.000			30.481			-3.810
23600.000			30.478			-3.810
23701.000			30.476			-3.810
23800.000			30.474			-3.809
23900.000			30.472			-3.809
24001.000			30.468			-3.808
24100.000			30.466			-3.808
24201.000			30.463			-3.808
24302.000			30.461			-3.808
24400.000			30.459			-3.807
24500.000			30.457			-3.807
24600.000			30.455			-3.807
24700.000			30.451			-3.806
24801.000			30.449			-3.806
24900.000			30.447			-3.806
25001.000			30.445			-3.806
25102.000			30.443			-3.805
25200.000			30.441			-3.805
25300.000			30.440			-3.805
25401.000			30.436			-3.804
25500.000			30.434			-3.804
25600.000			30.432			-3.804
25701.000			30.430			-3.804
25801.000			30.428			-3.804
25901.000			30.426			-3.803
26001.000			30.424			-3.803
26100.000			30.420			-3.803
26200.000			30.419			-3.802
26301.000			30.417			-3.802
26400.000			30.414			-3.802
26501.000			30.413			-3.802
26602.000			30.411			-3.801
26700.000			30.409			-3.801
26800.000			30.408			-3.801
26901.000			30.403			-3.800
27000.000			30.402			-3.800
27100.000			30.400			-3.800
27201.000			30.399			-3.800
27301.000			30.396			-3.800
27401.000			30.395			-3.799
27501.000			30.393			-3.799
27600.000			30.388			-3.799
27700.000			30.387			-3.798
27800.000			30.385			-3.798
27900.000			30.383			-3.798
28001.000			30.382			-3.798
28101.000			30.381			-3.798
28201.000			30.378			-3.797
28301.000			30.375			-3.797
28400.000			30.373			-3.797
28500.000			30.372			-3.796
28601.000			30.369			-3.796
28700.000			30.368			-3.796
28800.000			30.367			-3.796
28902.000			30.365			-3.796
29001.000			30.361			-3.795
29100.000			30.359			-3.795
29201.000			30.357			-3.795
29300.000			30.356			-3.795
29400.000			30.355			-3.794
29501.000			30.352			-3.794
29600.000			30.350			-3.794
29701.000			30.349			-3.794
29802.000			30.347			-3.793
29900.000			30.345			-3.793
30000.000			30.343			-3.793
30101.000			30.341			-3.793
30200.000			30.340			-3.792
30300.000			30.338			-3.792
30401.000			30.337			-3.792
30501.000			30.333			-3.792
30601.000			30.331			-3.791
30701.000			30.330			-3.791
30800.000			30.328			-3.791
30900.000			30.327			-3.791
31000.000			30.325			-3.791
31100.000			30.323			-3.790
31201.000			30.320			-3.790
31301.000			30.318			-3.790
31401.000			30.316			-3.789
31501.000			30.315			-3.789
31600.000			30.315			-3.789
31700.000			30.313			-3.789
31801.000			30.311			-3.789
31900.000			30.308			-3.788
32001.000			30.307			-3.788
32102.000			30.304			-3.788
32200.000			30.303			-3.788
32300.000			30.302			-3.788
32401.000			30.301			-3.788
32500.000			30.299			-3.787
32600.000			30.295			-3.787
32701.000			30.293			-3.787
32801.000			30.292			-3.787
32901.000			30.291			-3.786
33001.000			30.290			-3.786
33100.000			30.288			-3.786
33200.000			30.286			-3.786
33301.000			30.285			-3.786
33400.000			30.283			-3.785
33500.000			30.281			-3.785
33602.000			30.278			-3.785
33701.000			30.277			-3.785
33800.000			30.277			-3.785
33901.000			30.276			-3.784
34000.000			30.274			-3.784
34100.000			30.271			-3.784
34200.000			30.270			-3.784
34300.000			30.269			-3.784
34402.000			30.267			-3.783
34501.000			30.265			-3.783
34600.000			30.264			-3.783
34701.000			30.263			-3.783
34800.000			30.259			-3.782
34900.000			30.259			-3.782
35001.000			30.258			-3.782
35100.000			30.256			-3.782
35201.000			30.254			-3.782
35302.000			30.252			-3.781
35400.000			30.250			-3.781
35500.000			30.249			-3.781
35601.000			30.246			-3.781
35700.000			30.245			-3.781
35800.000			30.245			-3.781
35902.000			30.243			-3.780
36001.000			30.242			-3.780
36101.000			30.240			-3.780
36201.000			30.239			-3.780
36300.000			30.237			-3.780
36400.000			30.235			-3.779
36501.000			30.233			-3.779
36600.000			30.232			-3.779
36701.000			30.231			-3.779
36802.000			30.229			-3.779
36900.000			30.228			-3.778
37000.000			30.226			-3.778
37101.000			30.224			-3.778
37200.000			30.223			-3.778
37300.000			30.222			-3.778
37400.000			30.219			-3.777
37501.000			30.218			-3.777
37602.000			30.217			-3.777
37700.000			30.216			-3.777
37800.000			30.215			-3.777
37901.000			30.212			-3.777
38000.000			30.211			-3.776
38100.000			30.210			-3.776
38201.000			30.209			-3.776
38301.000			30.207			-3.776
38401.000			30.205			-3.776
38501.000			30.203			-3.775
38600.000			30.202			-3.775
38700.000			30.201			-3.775
38801.000			30.200			-3.775
38900.000			30.198			-3.775
39000.000			30.197			-3.775
39102.000			30.196			-3.775
39201.000			30.194			-3.774
39300.000			30.193			-3.774
39401.000			30.192			-3.774
39500.000			30.191			-3.774
39600.000			30.188			-3.774
39701.000			30.187			-3.773
39801.000			30.186			-3.773
39901.000			30.183			-3.773
40002.000			30.181			-3.773
40100.000			30.181			-3.773
40200.000			30.179			-3.772
40301.000			30.178			-3.772
40400.000			30.178			-3.772
40500.000			30.177			-3.772
40602.000			30.174			-3.772
40701.000			30.173			-3.772
40801.000			30.171			-3.771
40900.000			30.171			-3.771
41000.000			30.170			-3.771
41101.000			30.168			-3.771
41200.000			30.166			-3.771
41300.000			30.165			-3.771
41402.000			30.164			-3.770
41501.000			30.162			-3.770
41600.000			30.161			-3.770
41701.000			30.159			-3.770
41800.000			30.159			-3.770
41900.000			30.158			-3.770
42001.000			30.156			-3.769
42100.000			30.154			-3.769
42201.000			30.153			-3.769
42302.000			30.151			-3.769
42400.000			30.150			-3.769
42500.000			30.148			-3.769
42601.000			30.147			-3.768
42700.000			30.146			-3.768
42800.000			30.145			-3.768
42902.000			30.143			-3.768
43001.000			30.142			-3.768
43100.000			30.142			-3.768
43201.000			30.140			-3.768
43300.000			30.139			-3.767
43400.000			30.138			-3.767
43501.000			30.136			-3.767
43600.000			30.135			-3.767
43702.000			30.133			-3.767
43801.000			30.132			-3.766
43900.000			30.132			-3.766
44001.000			30.130			-3.766
44100.000			30.129			-3.766
44200.000			30.126			-3.766
44301.000			30.126			-3.766
44400.000			30.124			-3.766
44501.000			30.122			-3.765
44602.000			30.121			-3.765
44700.000			30.120			-3.765
44800.000			30.120			-3.765
44901.000			30.118			-3.765
45000.000			30.116			-3.764
45100.000			30.116			-3.764
45202.000			30.115			-3.764
45301.000			30.113			-3.764
45401.000			30.111			-3.764
45501.000			30.111			-3.764
45600.000			30.110			-3.764
45700.000			30.109			-3.764
45801.000			30.107			-3.763
45900.000			30.105			-3.763
46001.000			30.106			-3.763
46102.000			30.104			-3.763
46200.000			30.103			-3.763
46300.000			30.102			-3.763
46401.000			30.100			-3.762
46500.000			30.098			-3.762
46600.000			30.097			-3.762
46701.000			30.096			-3.762
46801.000			30.095			-3.762
46902.000			30.094			-3.762
47000.000			30.093			-3.762
47100.000			30.091			-3.761
47201.000			30.090			-3.761
47300.000			30.090			-3.761
47400.000			30.089			-3.761
47501.000			30.087			-3.761
47601.000			30.086			-3.761
47701.000			30.085			-3.761
47801.000			30.083			-3.760
47900.000			30.082			-3.760
48000.000			30.082			-3.760
48101.000			30.081			-3.760
48200.000			30.079			-3.760
48300.000			30.078			-3.760
48402.000			30.077			-3.760
48501.000			30.075			-3.759
48600.000			30.074			-3.759
48701.000			30.072			-3.759
48800.000			30.073			-3.759
48900.000			30.072			-3.759
49001.000			30.071			-3.759
49101.000			30.069			-3.759
49201.000			30.068			-3.758
49302.000			30.065			-3.758
49400.000			30.065			-3.758
49500.000			30.063			-3.758
49601.000			30.063			-3.758
49700.000			30.063			-3.758
49800.000			30.061			-3.758
49902.000			30.060			-3.758
50001.000			30.059			-3.757
50100.000			30.057			-3.757
50200.000			30.055			-3.757
50300.000			30.055			-3.757
50401.000			30.054			-3.757
50500.000			30.053			-3.757
50600.000			30.052			-3.757
50702.000			30.051			-3.756
50801.000			30.050			-3.756
50900.000			30.048			-3.756
51001.000			30.047			-3.756
51100.000			30.046			-3.756
51200.000			30.045			-3.756
51301.000			30.044			-3.756
51400.000			30.044			-3.755
51501.000			30.041			-3.755
51602.000			30.041			-3.755
51700.000			30.041			-3.755
51800.000			30.040			-3.755
51901.000			30.039			-3.755
52000.000			30.037			-3.755
52100.000			30.036			-3.755
52202.000			30.034			-3.754
52301.000			30.034			-3.754
52400.000			30.033			-3.754
52501.000			30.032			-3.754
52600.000			30.031			-3.754
52700.000			30.030			-3.754
52801.000			30.029			-3.754
52900.000			30.026			-3.753
53001.000			30.026			-3.753
53102.000			30.025			-3.753
53200.000			30.024			-3.753
53300.000			30.022			-3.753
53400.000			30.021			-3.753
53500.000			30.021			-3.753
53601.000			30.019			-3.752
53701.000			30.018			-3.752
53801.000			30.018			-3.752
53901.000			30.017			-3.752
54000.000			30.015			-3.752
54100.000			30.015			-3.752
54201.000			30.014			-3.752
54300.000			30.013			-3.752
54400.000			30.012			-3.752
54502.000			30.010			-3.751
54601.000			30.009			-3.751
54700.000			30.009			-3.751
54801.000			30.008			-3.751
54900.000			30.008			-3.751
55000.000			30.006			-3.751
55101.000			30.004			-3.751
55200.000			30.002			-3.750
55301.000			30.002			-3.750
55401.000			30.002			-3.750
55500.000			30.000			-3.750
55600.000			29.999			-3.750
55701.000			29.998			-3.750
55800.000			29.998			-3.750
55900.000			29.997			-3.750
56001.000			29.997			-3.750
56101.000			29.996			-3.749
56201.000			29.994			-3.749
56301.000			29.993			-3.749
56400.000			29.992			-3.749
56500.000			29.991			-3.749
56600.000			29.989			-3.749
56700.000			29.988			-3.749
56801.000			29.988			-3.748
56901.000			29.987			-3.748
57001.000			29.986			-3.748
57102.000			29.986			-3.748
57200.000			29.985			-3.748
57300.000			29.984			-3.748
57401.000			29.983			-3.748
57500.000			29.982			-3.748
57600.000			29.981			-3.748
57701.000			29.979			-3.747
57801.000			29.979			-3.747
57901.000			29.978			-3.747
58001.000			29.976			-3.747
58100.000			29.975			-3.747
58200.000			29.974			-3.747
58301.000			29.973			-3.747
58400.000			29.974			-3.747
58500.000			29.972			-3.747
58601.000			29.971			-3.746
58701.000			29.970			-3.746
58801.000			29.969			-3.746
58901.000			29.968			-3.746
59000.000			29.967			-3.746
59100.000			29.967			-3.746
59201.000			29.966			-3.746
59300.000			29.965			-3.746
59400.000			29.963			-3.745
59502.000			29.962			-3.745
59601.000			29.962			-3.745
59700.000			29.960			-3.745
59800.000			29.959			-3.745
59900.000			29.959			-3.745
60001.000			29.958			-3.745
60100.000			29.957			-3.745
60200.000			29.956			-3.745
60302.000			29.955			-3.744
60401.000			29.954			-3.744
60501.000			29.953			-3.744
60601.000			29.952			-3.744
60700.000			29.952			-3.744
60800.000			29.952			-3.744
60901.000			29.949			-3.744
61000.000			29.948			-3.743
61100.000			29.947			-3.743
61202.000			29.946			-3.743
61301.000			29.946			-3.743
61400.000			29.945			-3.743
61501.000			29.944			-3.743
61600.000			29.942			-3.743
61700.000			29.941			-3.743
61801.000			29.940			-3.743
61900.000			29.940			-3.742
62001.000			29.940			-3.743
62102.000			29.940			-3.743
62200.000			29.938			-3.742
62300.000			29.938			-3.742
62401.000			29.937			-3.742
62500.000			29.936			-3.742
62600.000			29.934			-3.742
62701.000			29.933			-3.742
62801.000			29.932			-3.742
62902.000			29.931			-3.741
63001.000			29.930			-3.741
63100.000			29.929			-3.741
63201.000			29.928			-3.741
63300.000			29.928			-3.741
63400.000			29.927			-3.741
63501.000			29.925			-3.741
63601.000			29.925			-3.741
63701.000			29.925			-3.741
63802.000			29.923			-3.740
63900.000			29.923			-3.740
64000.000			29.922			-3.740
64101.000			29.921			-3.740
64200.000			29.921			-3.740
64300.000			29.921			-3.740
64401.000			29.920			-3.740
64501.000			29.918			-3.740
64601.000			29.917			-3.740
64701.000			29.916			-3.740
64800.000			29.916			-3.739
64900.000			29.916			-3.740
65001.000			29.915			-3.739
65100.000			29.913			-3.739
65200.000			29.911			-3.739
65302.000			29.911			-3.739
65401.000			29.910			-3.739
65500.000			29.909			-3.739
65601.000			29.909			-3.739
65700.000			29.907			-3.738
65800.000			29.907			-3.738
65901.000			29.906			-3.738
66000.000			29.905			-3.738
66102.000			29.904			-3.738
66201.000			29.904			-3.738
66300.000			29.903			-3.738
66401.000			29.902			-3.738
66500.000			29.901			-3.738
66600.000			29.900			-3.738
66701.000			29.900			-3.737
66800.000			29.899			-3.737
66900.000			29.898			-3.737
67002.000			29.896			-3.737
67101.000			29.895			-3.737
67200.000			29.894			-3.737
67301.000			29.894			-3.737
67400.000			29.892			-3.737
67500.000			29.892			-3.736
67601.000			29.890			-3.736
67700.000			29.891			-3.736
67801.000			29.890			-3.736
67902.000			29.890			-3.736
68001.000			29.890			-3.736
68100.000			29.888			-3.736
68201.000			29.887			-3.736
68300.000			29.887			-3.736
68400.000			29.887			-3.736
68501.000			29.886			-3.736
68600.000			29.883			-3.735
68701.000			29.882			-3.735
68802.000			29.881			-3.735
68901.000			29.881			-3.735
69000.000			29.880			-3.735
69101.000			29.880			-3.735
69200.000			29.878			-3.735
69300.000			29.878			-3.735
69400.000			29.877			-3.735
69500.000			29.877			-3.735
69602.000			29.877			-3.735
69701.000			29.874			-3.734
69800.000			29.874			-3.734
69901.000			29.873			-3.734
70000.000			29.873			-3.734
70100.000			29.872			-3.734
70201.000			29.871			-3.734
70300.000			29.869			-3.734
70400.000			29.870			-3.734
70502.000			29.870			-3.734
70601.000			29.868			-3.734
70700.000			29.868			-3.733
70801.000			29.867			-3.733
70900.000			29.866			-3.733
71000.000			29.863			-3.733
71101.000			29.863			-3.733
71200.000			29.862			-3.733
