# Acquired on 10/01/2024 17:00:23 
# SPIDER: Creep_9mm_07714532C-1
# CREEP MEASUREMENT

# time [ms]		force [N]		stiffness [N/mm]
1.000			-16.579			-1.842
100.000			-17.497			-1.944
200.000			-17.899			-1.989
301.000			-17.939			-1.993
400.000			-17.777			-1.975
500.000			-17.717			-1.969
602.000			-17.667			-1.963
701.000			-17.623			-1.958
800.000			-17.586			-1.954
901.000			-17.551			-1.950
1000.000			-17.520			-1.947
1100.000			-17.466			-1.941
1200.000			-17.441			-1.938
1300.000			-17.418			-1.935
1402.000			-17.397			-1.933
1501.000			-17.377			-1.931
1600.000			-17.357			-1.929
1701.000			-17.339			-1.927
1800.000			-17.306			-1.923
1900.000			-17.290			-1.921
2001.000			-17.275			-1.919
2100.000			-17.261			-1.918
2201.000			-17.246			-1.916
2301.000			-17.233			-1.915
2400.000			-17.220			-1.913
2500.000			-17.196			-1.911
2601.000			-17.184			-1.909
2700.000			-17.173			-1.908
2800.000			-17.162			-1.907
2902.000			-17.152			-1.906
3001.000			-17.142			-1.905
3100.000			-17.132			-1.904
3201.000			-17.122			-1.902
3300.000			-17.104			-1.900
3400.000			-17.095			-1.899
3501.000			-17.086			-1.898
3600.000			-17.077			-1.897
3701.000			-17.069			-1.897
3802.000			-17.061			-1.896
3900.000			-17.053			-1.895
4000.000			-17.038			-1.893
4101.000			-17.030			-1.892
4200.000			-17.023			-1.891
4300.000			-17.015			-1.891
4402.000			-17.007			-1.890
4501.000			-17.000			-1.889
4601.000			-16.994			-1.888
4700.000			-16.981			-1.887
4800.000			-16.975			-1.886
4901.000			-16.969			-1.885
5000.000			-16.963			-1.885
5100.000			-16.957			-1.884
5202.000			-16.951			-1.883
5301.000			-16.944			-1.883
5400.000			-16.933			-1.881
5501.000			-16.927			-1.881
5600.000			-16.921			-1.880
5700.000			-16.917			-1.880
5801.000			-16.912			-1.879
5900.000			-16.908			-1.879
6001.000			-16.902			-1.878
6102.000			-16.896			-1.877
6200.000			-16.886			-1.876
6300.000			-16.880			-1.876
6401.000			-16.875			-1.875
6500.000			-16.870			-1.874
6600.000			-16.867			-1.874
6701.000			-16.862			-1.874
6801.000			-16.858			-1.873
6901.000			-16.850			-1.872
7001.000			-16.845			-1.872
7100.000			-16.839			-1.871
7200.000			-16.835			-1.871
7301.000			-16.830			-1.870
7400.000			-16.827			-1.870
7502.000			-16.822			-1.869
7601.000			-16.813			-1.868
7700.000			-16.809			-1.868
7801.000			-16.806			-1.867
7900.000			-16.802			-1.867
8000.000			-16.798			-1.866
8101.000			-16.793			-1.866
8200.000			-16.791			-1.866
8301.000			-16.782			-1.865
8402.000			-16.779			-1.864
8500.000			-16.776			-1.864
8600.000			-16.772			-1.864
8701.000			-16.769			-1.863
8800.000			-16.765			-1.863
8900.000			-16.760			-1.862
9001.000			-16.758			-1.862
9101.000			-16.751			-1.861
9201.000			-16.747			-1.861
9301.000			-16.744			-1.860
9400.000			-16.739			-1.860
9500.000			-16.736			-1.860
9601.000			-16.733			-1.859
9700.000			-16.729			-1.859
9800.000			-16.723			-1.858
9902.000			-16.720			-1.858
10001.000			-16.718			-1.858
10100.000			-16.716			-1.857
10201.000			-16.712			-1.857
10300.000			-16.707			-1.856
10400.000			-16.704			-1.856
10501.000			-16.699			-1.855
10601.000			-16.696			-1.855
10702.000			-16.694			-1.855
10801.000			-16.690			-1.854
10900.000			-16.687			-1.854
11001.000			-16.685			-1.854
11100.000			-16.682			-1.854
11200.000			-16.679			-1.853
11301.000			-16.674			-1.853
11400.000			-16.670			-1.852
11501.000			-16.667			-1.852
11602.000			-16.665			-1.852
11700.000			-16.662			-1.851
11800.000			-16.660			-1.851
11901.000			-16.657			-1.851
12000.000			-16.650			-1.850
12100.000			-16.648			-1.850
12202.000			-16.646			-1.850
12301.000			-16.644			-1.849
12401.000			-16.641			-1.849
12501.000			-16.639			-1.849
12600.000			-16.636			-1.848
12700.000			-16.630			-1.848
12801.000			-16.627			-1.847
12900.000			-16.625			-1.847
13000.000			-16.623			-1.847
13102.000			-16.620			-1.847
13201.000			-16.619			-1.847
13300.000			-16.615			-1.846
13401.000			-16.612			-1.846
13500.000			-16.609			-1.845
13600.000			-16.606			-1.845
13701.000			-16.604			-1.845
13801.000			-16.602			-1.845
13902.000			-16.600			-1.844
14001.000			-16.597			-1.844
14100.000			-16.593			-1.844
14201.000			-16.591			-1.843
14300.000			-16.587			-1.843
14400.000			-16.586			-1.843
14501.000			-16.585			-1.843
14600.000			-16.583			-1.843
14701.000			-16.581			-1.842
14802.000			-16.579			-1.842
14900.000			-16.575			-1.842
15000.000			-16.572			-1.841
15101.000			-16.570			-1.841
15200.000			-16.567			-1.841
15300.000			-16.565			-1.841
15401.000			-16.564			-1.840
15501.000			-16.561			-1.840
15601.000			-16.557			-1.840
15701.000			-16.554			-1.839
15800.000			-16.553			-1.839
15900.000			-16.552			-1.839
16001.000			-16.550			-1.839
16100.000			-16.548			-1.839
16200.000			-16.546			-1.838
16302.000			-16.541			-1.838
16401.000			-16.539			-1.838
16500.000			-16.537			-1.837
16601.000			-16.536			-1.837
16700.000			-16.535			-1.837
16800.000			-16.532			-1.837
16901.000			-16.529			-1.837
17000.000			-16.527			-1.836
17102.000			-16.524			-1.836
17201.000			-16.521			-1.836
17300.000			-16.520			-1.836
17401.000			-16.518			-1.835
17500.000			-16.517			-1.835
17600.000			-16.515			-1.835
17701.000			-16.513			-1.835
17800.000			-16.509			-1.834
17901.000			-16.508			-1.834
18002.000			-16.506			-1.834
18100.000			-16.504			-1.834
18200.000			-16.502			-1.834
18301.000			-16.501			-1.833
18400.000			-16.499			-1.833
18500.000			-16.496			-1.833
18601.000			-16.493			-1.833
18701.000			-16.493			-1.833
18801.000			-16.491			-1.832
18901.000			-16.488			-1.832
19000.000			-16.487			-1.832
19100.000			-16.486			-1.832
19201.000			-16.482			-1.831
19300.000			-16.480			-1.831
19400.000			-16.479			-1.831
19502.000			-16.477			-1.831
19601.000			-16.475			-1.831
19700.000			-16.474			-1.830
19801.000			-16.472			-1.830
19900.000			-16.471			-1.830
20000.000			-16.468			-1.830
20101.000			-16.467			-1.830
20200.000			-16.464			-1.829
20302.000			-16.462			-1.829
20401.000			-16.461			-1.829
20500.000			-16.459			-1.829
20601.000			-16.458			-1.829
20700.000			-16.454			-1.828
20800.000			-16.453			-1.828
20901.000			-16.451			-1.828
21000.000			-16.450			-1.828
21101.000			-16.448			-1.828
21202.000			-16.447			-1.827
21300.000			-16.446			-1.827
21400.000			-16.443			-1.827
21501.000			-16.442			-1.827
21600.000			-16.439			-1.827
21700.000			-16.438			-1.826
21801.000			-16.436			-1.826
21901.000			-16.434			-1.826
22001.000			-16.433			-1.826
22101.000			-16.431			-1.826
22200.000			-16.429			-1.825
22300.000			-16.428			-1.825
22401.000			-16.427			-1.825
22500.000			-16.425			-1.825
22601.000			-16.422			-1.825
22702.000			-16.421			-1.825
22800.000			-16.420			-1.824
22900.000			-16.418			-1.824
23001.000			-16.416			-1.824
23100.000			-16.415			-1.824
23200.000			-16.414			-1.824
23301.000			-16.413			-1.824
23401.000			-16.411			-1.823
23502.000			-16.409			-1.823
23600.000			-16.407			-1.823
23700.000			-16.405			-1.823
23801.000			-16.405			-1.823
23900.000			-16.404			-1.823
24000.000			-16.403			-1.823
24101.000			-16.400			-1.822
24201.000			-16.399			-1.822
24301.000			-16.396			-1.822
24401.000			-16.395			-1.822
24500.000			-16.394			-1.822
24600.000			-16.392			-1.821
24701.000			-16.391			-1.821
24800.000			-16.390			-1.821
24900.000			-16.389			-1.821
25002.000			-16.385			-1.821
25101.000			-16.384			-1.820
25200.000			-16.383			-1.820
25301.000			-16.382			-1.820
25400.000			-16.381			-1.820
25500.000			-16.380			-1.820
25601.000			-16.379			-1.820
25700.000			-16.378			-1.820
25801.000			-16.373			-1.819
25902.000			-16.372			-1.819
26000.000			-16.371			-1.819
26100.000			-16.370			-1.819
26201.000			-16.368			-1.819
26300.000			-16.368			-1.819
26400.000			-16.366			-1.818
26501.000			-16.365			-1.818
26601.000			-16.364			-1.818
26702.000			-16.363			-1.818
26801.000			-16.362			-1.818
26900.000			-16.360			-1.818
27001.000			-16.358			-1.818
27100.000			-16.358			-1.818
27200.000			-16.355			-1.817
27301.000			-16.354			-1.817
27401.000			-16.352			-1.817
27501.000			-16.351			-1.817
27601.000			-16.350			-1.817
27700.000			-16.348			-1.816
27800.000			-16.348			-1.816
27901.000			-16.345			-1.816
28000.000			-16.344			-1.816
28100.000			-16.343			-1.816
28202.000			-16.342			-1.816
28301.000			-16.340			-1.816
28401.000			-16.340			-1.816
28501.000			-16.339			-1.815
28600.000			-16.338			-1.815
28700.000			-16.335			-1.815
28801.000			-16.334			-1.815
28900.000			-16.333			-1.815
29000.000			-16.331			-1.815
29102.000			-16.330			-1.814
29201.000			-16.329			-1.814
29300.000			-16.328			-1.814
29401.000			-16.327			-1.814
29500.000			-16.326			-1.814
29600.000			-16.324			-1.814
29701.000			-16.323			-1.814
29801.000			-16.322			-1.814
29902.000			-16.321			-1.813
30001.000			-16.320			-1.813
30100.000			-16.318			-1.813
30201.000			-16.317			-1.813
30300.000			-16.315			-1.813
30400.000			-16.314			-1.813
30501.000			-16.314			-1.813
30601.000			-16.313			-1.813
30701.000			-16.310			-1.812
30801.000			-16.310			-1.812
30900.000			-16.308			-1.812
31000.000			-16.307			-1.812
31101.000			-16.306			-1.812
31200.000			-16.304			-1.812
31300.000			-16.303			-1.811
31402.000			-16.303			-1.811
31501.000			-16.302			-1.811
31600.000			-16.300			-1.811
31701.000			-16.299			-1.811
31800.000			-16.297			-1.811
31900.000			-16.296			-1.811
32001.000			-16.295			-1.811
32100.000			-16.295			-1.811
32201.000			-16.293			-1.810
32302.000			-16.291			-1.810
32400.000			-16.290			-1.810
32500.000			-16.289			-1.810
32601.000			-16.288			-1.810
32700.000			-16.287			-1.810
32800.000			-16.287			-1.810
32901.000			-16.286			-1.810
33001.000			-16.284			-1.809
33102.000			-16.283			-1.809
33200.000			-16.281			-1.809
33300.000			-16.281			-1.809
33401.000			-16.280			-1.809
33500.000			-16.278			-1.809
33600.000			-16.277			-1.809
33701.000			-16.275			-1.808
33801.000			-16.275			-1.808
33901.000			-16.274			-1.808
34001.000			-16.273			-1.808
34100.000			-16.272			-1.808
34200.000			-16.270			-1.808
34301.000			-16.269			-1.808
34400.000			-16.270			-1.808
34500.000			-16.268			-1.808
34602.000			-16.266			-1.807
34701.000			-16.264			-1.807
34800.000			-16.264			-1.807
34901.000			-16.263			-1.807
35000.000			-16.263			-1.807
35100.000			-16.262			-1.807
35201.000			-16.259			-1.807
35300.000			-16.257			-1.806
35401.000			-16.256			-1.806
35502.000			-16.256			-1.806
35600.000			-16.255			-1.806
35700.000			-16.253			-1.806
35801.000			-16.253			-1.806
35900.000			-16.253			-1.806
36000.000			-16.252			-1.806
36101.000			-16.250			-1.806
36201.000			-16.248			-1.805
36302.000			-16.248			-1.805
36400.000			-16.247			-1.805
36500.000			-16.247			-1.805
36601.000			-16.245			-1.805
36700.000			-16.245			-1.805
36800.000			-16.244			-1.805
36901.000			-16.242			-1.805
37001.000			-16.242			-1.805
37101.000			-16.241			-1.805
37201.000			-16.241			-1.805
37300.000			-16.239			-1.804
37400.000			-16.237			-1.804
37501.000			-16.236			-1.804
37600.000			-16.235			-1.804
37700.000			-16.234			-1.804
37802.000			-16.233			-1.804
37901.000			-16.233			-1.804
38000.000			-16.232			-1.804
38101.000			-16.230			-1.803
38200.000			-16.230			-1.803
38300.000			-16.229			-1.803
38401.000			-16.228			-1.803
38501.000			-16.227			-1.803
38601.000			-16.226			-1.803
38701.000			-16.224			-1.803
38800.000			-16.223			-1.803
38900.000			-16.222			-1.802
39001.000			-16.221			-1.802
39100.000			-16.221			-1.802
39200.000			-16.221			-1.802
39302.000			-16.219			-1.802
39401.000			-16.219			-1.802
39500.000			-16.217			-1.802
39600.000			-16.216			-1.802
39700.000			-16.215			-1.802
39801.000			-16.214			-1.802
39900.000			-16.214			-1.802
40000.000			-16.212			-1.801
40102.000			-16.212			-1.801
40201.000			-16.211			-1.801
40300.000			-16.210			-1.801
40401.000			-16.210			-1.801
40500.000			-16.209			-1.801
40600.000			-16.208			-1.801
40701.000			-16.207			-1.801
40800.000			-16.205			-1.801
40901.000			-16.205			-1.801
41002.000			-16.203			-1.800
41100.000			-16.202			-1.800
41200.000			-16.201			-1.800
41301.000			-16.200			-1.800
41400.000			-16.200			-1.800
41500.000			-16.199			-1.800
41601.000			-16.199			-1.800
41701.000			-16.197			-1.800
41801.000			-16.196			-1.800
41901.000			-16.195			-1.799
42000.000			-16.194			-1.799
42100.000			-16.193			-1.799
42201.000			-16.193			-1.799
42300.000			-16.192			-1.799
42400.000			-16.190			-1.799
42502.000			-16.190			-1.799
42601.000			-16.190			-1.799
42700.000			-16.188			-1.799
42800.000			-16.187			-1.799
42900.000			-16.187			-1.799
43001.000			-16.187			-1.799
43100.000			-16.186			-1.798
43200.000			-16.184			-1.798
43302.000			-16.183			-1.798
43401.000			-16.181			-1.798
43500.000			-16.181			-1.798
43601.000			-16.181			-1.798
43700.000			-16.179			-1.798
43800.000			-16.178			-1.798
43901.000			-16.178			-1.798
44000.000			-16.178			-1.798
44101.000			-16.176			-1.797
44202.000			-16.175			-1.797
44300.000			-16.174			-1.797
44400.000			-16.174			-1.797
44501.000			-16.174			-1.797
44600.000			-16.172			-1.797
44700.000			-16.171			-1.797
44801.000			-16.170			-1.797
44901.000			-16.170			-1.797
45001.000			-16.169			-1.797
45101.000			-16.168			-1.796
45200.000			-16.168			-1.796
45300.000			-16.166			-1.796
45401.000			-16.166			-1.796
45500.000			-16.164			-1.796
45600.000			-16.162			-1.796
45702.000			-16.162			-1.796
45801.000			-16.163			-1.796
45900.000			-16.162			-1.796
46000.000			-16.161			-1.796
46100.000			-16.159			-1.795
46201.000			-16.159			-1.795
46300.000			-16.158			-1.795
46400.000			-16.157			-1.795
46502.000			-16.156			-1.795
46601.000			-16.156			-1.795
46700.000			-16.155			-1.795
46801.000			-16.153			-1.795
46900.000			-16.152			-1.795
47000.000			-16.153			-1.795
47101.000			-16.152			-1.795
47200.000			-16.151			-1.795
47301.000			-16.150			-1.794
47402.000			-16.149			-1.794
47500.000			-16.147			-1.794
47600.000			-16.146			-1.794
47701.000			-16.147			-1.794
47800.000			-16.146			-1.794
47900.000			-16.145			-1.794
48001.000			-16.145			-1.794
48101.000			-16.145			-1.794
48201.000			-16.143			-1.794
48301.000			-16.143			-1.794
48400.000			-16.142			-1.794
48500.000			-16.141			-1.793
48601.000			-16.141			-1.793
48700.000			-16.140			-1.793
48800.000			-16.138			-1.793
48902.000			-16.137			-1.793
49001.000			-16.137			-1.793
49100.000			-16.136			-1.793
49200.000			-16.135			-1.793
49300.000			-16.134			-1.793
49401.000			-16.134			-1.793
49500.000			-16.133			-1.793
49600.000			-16.132			-1.792
49702.000			-16.131			-1.792
49801.000			-16.130			-1.792
49900.000			-16.130			-1.792
50001.000			-16.130			-1.792
50100.000			-16.129			-1.792
50200.000			-16.128			-1.792
50301.000			-16.128			-1.792
50400.000			-16.126			-1.792
50501.000			-16.126			-1.792
50602.000			-16.124			-1.792
50700.000			-16.124			-1.792
50800.000			-16.122			-1.791
50901.000			-16.123			-1.791
51000.000			-16.122			-1.791
51100.000			-16.120			-1.791
51201.000			-16.119			-1.791
51301.000			-16.119			-1.791
51401.000			-16.119			-1.791
51501.000			-16.119			-1.791
51600.000			-16.118			-1.791
51700.000			-16.117			-1.791
51801.000			-16.116			-1.791
51900.000			-16.114			-1.790
52001.000			-16.113			-1.790
52102.000			-16.114			-1.790
52200.000			-16.113			-1.790
52300.000			-16.112			-1.790
52400.000			-16.112			-1.790
52500.000			-16.110			-1.790
52601.000			-16.109			-1.790
52700.000			-16.109			-1.790
52801.000			-16.108			-1.790
52902.000			-16.108			-1.790
53000.000			-16.108			-1.790
53100.000			-16.107			-1.790
53201.000			-16.106			-1.790
53300.000			-16.106			-1.790
53400.000			-16.104			-1.789
53501.000			-16.103			-1.789
53601.000			-16.103			-1.789
53701.000			-16.103			-1.789
53801.000			-16.102			-1.789
53900.000			-16.101			-1.789
54000.000			-16.098			-1.789
54101.000			-16.099			-1.789
54200.000			-16.099			-1.789
54300.000			-16.098			-1.789
54402.000			-16.097			-1.789
54501.000			-16.096			-1.788
54600.000			-16.096			-1.788
54701.000			-16.095			-1.788
54800.000			-16.094			-1.788
54900.000			-16.093			-1.788
55001.000			-16.093			-1.788
55100.000			-16.092			-1.788
55201.000			-16.091			-1.788
55302.000			-16.091			-1.788
55400.000			-16.090			-1.788
55500.000			-16.089			-1.788
55600.000			-16.088			-1.788
55700.000			-16.087			-1.787
55801.000			-16.087			-1.787
55900.000			-16.086			-1.787
56001.000			-16.086			-1.787
56102.000			-16.087			-1.787
56200.000			-16.085			-1.787
56300.000			-16.084			-1.787
56401.000			-16.084			-1.787
56500.000			-16.084			-1.787
56600.000			-16.082			-1.787
56701.000			-16.082			-1.787
56801.000			-16.081			-1.787
56901.000			-16.080			-1.787
57001.000			-16.080			-1.787
57100.000			-16.079			-1.787
57200.000			-16.079			-1.787
57301.000			-16.078			-1.786
57400.000			-16.078			-1.786
57500.000			-16.077			-1.786
57602.000			-16.076			-1.786
57701.000			-16.075			-1.786
57800.000			-16.075			-1.786
57901.000			-16.074			-1.786
58000.000			-16.073			-1.786
58100.000			-16.072			-1.786
58201.000			-16.072			-1.786
58300.000			-16.072			-1.786
58401.000			-16.070			-1.786
58502.000			-16.070			-1.786
58600.000			-16.070			-1.786
58700.000			-16.069			-1.785
58800.000			-16.068			-1.785
58900.000			-16.067			-1.785
59001.000			-16.067			-1.785
59100.000			-16.066			-1.785
59201.000			-16.065			-1.785
59302.000			-16.064			-1.785
59400.000			-16.065			-1.785
59500.000			-16.064			-1.785
59601.000			-16.063			-1.785
59700.000			-16.063			-1.785
59800.000			-16.063			-1.785
59901.000			-16.061			-1.785
60001.000			-16.060			-1.784
60101.000			-16.061			-1.785
60201.000			-16.060			-1.784
60300.000			-16.058			-1.784
60400.000			-16.058			-1.784
60501.000			-16.058			-1.784
60600.000			-16.057			-1.784
60700.000			-16.057			-1.784
60802.000			-16.057			-1.784
60901.000			-16.055			-1.784
61000.000			-16.055			-1.784
61101.000			-16.054			-1.784
61200.000			-16.053			-1.784
61300.000			-16.053			-1.784
61401.000			-16.051			-1.783
61501.000			-16.050			-1.783
61601.000			-16.049			-1.783
61701.000			-16.049			-1.783
61800.000			-16.049			-1.783
61900.000			-16.049			-1.783
62000.000			-16.049			-1.783
62100.000			-16.048			-1.783
62201.000			-16.046			-1.783
62301.000			-16.046			-1.783
62401.000			-16.046			-1.783
62501.000			-16.045			-1.783
62600.000			-16.045			-1.783
62700.000			-16.045			-1.783
62801.000			-16.044			-1.783
62900.000			-16.043			-1.783
63000.000			-16.042			-1.782
63102.000			-16.042			-1.782
63201.000			-16.041			-1.782
63300.000			-16.040			-1.782
63401.000			-16.040			-1.782
63500.000			-16.039			-1.782
63600.000			-16.038			-1.782
63701.000			-16.038			-1.782
63800.000			-16.037			-1.782
63901.000			-16.037			-1.782
64002.000			-16.037			-1.782
64100.000			-16.037			-1.782
64200.000			-16.036			-1.782
64301.000			-16.034			-1.782
64400.000			-16.034			-1.782
64500.000			-16.034			-1.782
64601.000			-16.034			-1.782
64701.000			-16.033			-1.781
64801.000			-16.032			-1.781
64901.000			-16.030			-1.781
65000.000			-16.029			-1.781
65100.000			-16.030			-1.781
65200.000			-16.029			-1.781
65300.000			-16.029			-1.781
65401.000			-16.029			-1.781
65501.000			-16.028			-1.781
65601.000			-16.027			-1.781
65701.000			-16.027			-1.781
65800.000			-16.026			-1.781
65900.000			-16.025			-1.781
66001.000			-16.026			-1.781
66100.000			-16.024			-1.780
66200.000			-16.024			-1.780
66302.000			-16.023			-1.780
66401.000			-16.022			-1.780
66500.000			-16.022			-1.780
66601.000			-16.021			-1.780
66700.000			-16.021			-1.780
66800.000			-16.021			-1.780
66901.000			-16.021			-1.780
67001.000			-16.021			-1.780
67101.000			-16.019			-1.780
67202.000			-16.018			-1.780
67300.000			-16.018			-1.780
67400.000			-16.017			-1.780
67501.000			-16.017			-1.780
67600.000			-16.016			-1.780
67700.000			-16.015			-1.779
67801.000			-16.016			-1.780
67901.000			-16.014			-1.779
68001.000			-16.013			-1.779
68101.000			-16.012			-1.779
68200.000			-16.012			-1.779
68300.000			-16.012			-1.779
68400.000			-16.012			-1.779
68500.000			-16.011			-1.779
68601.000			-16.011			-1.779
68701.000			-16.009			-1.779
68801.000			-16.009			-1.779
