# Acquired on 08/01/2024 15:03:49 
# SPIDER: Creep_4mm_0771453C
# CREEP MEASUREMENT

# time [ms]		force [N]		stiffness [N/mm]
0.000			-11.544			-2.886
100.000			-12.545			-3.136
200.000			-12.921			-3.230
301.000			-12.932			-3.233
401.000			-12.883			-3.221
501.000			-12.847			-3.212
601.000			-12.817			-3.204
700.000			-12.772			-3.193
800.000			-12.753			-3.188
901.000			-12.736			-3.184
1000.000			-12.721			-3.180
1100.000			-12.708			-3.177
1202.000			-12.694			-3.174
1301.000			-12.682			-3.171
1400.000			-12.659			-3.165
1501.000			-12.650			-3.162
1600.000			-12.640			-3.160
1700.000			-12.632			-3.158
1801.000			-12.624			-3.156
1901.000			-12.615			-3.154
2001.000			-12.607			-3.152
2101.000			-12.592			-3.148
2200.000			-12.585			-3.146
2300.000			-12.578			-3.144
2400.000			-12.572			-3.143
2500.000			-12.566			-3.142
2601.000			-12.560			-3.140
2701.000			-12.554			-3.139
2801.000			-12.544			-3.136
2901.000			-12.538			-3.135
3000.000			-12.533			-3.133
3100.000			-12.529			-3.132
3201.000			-12.523			-3.131
3300.000			-12.519			-3.130
3401.000			-12.514			-3.128
3502.000			-12.510			-3.127
3601.000			-12.500			-3.125
3700.000			-12.496			-3.124
3801.000			-12.492			-3.123
3900.000			-12.488			-3.122
4000.000			-12.483			-3.121
4101.000			-12.480			-3.120
4201.000			-12.477			-3.119
4301.000			-12.469			-3.117
4401.000			-12.467			-3.117
4500.000			-12.463			-3.116
4600.000			-12.459			-3.115
4701.000			-12.457			-3.114
4800.000			-12.453			-3.113
4900.000			-12.449			-3.112
5002.000			-12.442			-3.111
5101.000			-12.439			-3.110
5200.000			-12.437			-3.109
5301.000			-12.434			-3.109
5400.000			-12.432			-3.108
5500.000			-12.429			-3.107
5600.000			-12.426			-3.106
5701.000			-12.420			-3.105
5802.000			-12.417			-3.104
5900.000			-12.415			-3.104
6000.000			-12.413			-3.103
6101.000			-12.410			-3.103
6200.000			-12.407			-3.102
6300.000			-12.405			-3.101
6401.000			-12.402			-3.101
6501.000			-12.398			-3.099
6601.000			-12.395			-3.099
6701.000			-12.391			-3.098
6800.000			-12.390			-3.097
6900.000			-12.387			-3.097
7001.000			-12.384			-3.096
7100.000			-12.382			-3.095
7201.000			-12.379			-3.095
7302.000			-12.376			-3.094
7400.000			-12.374			-3.093
7500.000			-12.373			-3.093
7601.000			-12.371			-3.093
7700.000			-12.368			-3.092
7800.000			-12.365			-3.091
7901.000			-12.362			-3.091
8001.000			-12.359			-3.090
8101.000			-12.358			-3.090
8201.000			-12.357			-3.089
8300.000			-12.354			-3.089
8400.000			-12.352			-3.088
8501.000			-12.350			-3.088
8600.000			-12.346			-3.087
8700.000			-12.345			-3.086
8802.000			-12.342			-3.086
8901.000			-12.341			-3.085
9001.000			-12.340			-3.085
9100.000			-12.338			-3.085
9200.000			-12.336			-3.084
9301.000			-12.332			-3.083
9400.000			-12.331			-3.083
9501.000			-12.330			-3.082
9602.000			-12.328			-3.082
9700.000			-12.325			-3.081
9800.000			-12.323			-3.081
9901.000			-12.322			-3.081
10000.000			-12.322			-3.080
10100.000			-12.318			-3.080
10201.000			-12.316			-3.079
10301.000			-12.313			-3.078
10401.000			-12.312			-3.078
10501.000			-12.311			-3.078
10600.000			-12.310			-3.077
10700.000			-12.308			-3.077
10801.000			-12.305			-3.076
10900.000			-12.304			-3.076
11001.000			-12.303			-3.076
11102.000			-12.301			-3.075
11200.000			-12.300			-3.075
11300.000			-12.299			-3.075
11401.000			-12.295			-3.074
11500.000			-12.294			-3.073
11600.000			-12.293			-3.073
11701.000			-12.291			-3.073
11801.000			-12.289			-3.072
11902.000			-12.289			-3.072
12000.000			-12.286			-3.072
12100.000			-12.285			-3.071
12201.000			-12.283			-3.071
12300.000			-12.282			-3.070
12400.000			-12.280			-3.070
12501.000			-12.279			-3.070
12601.000			-12.278			-3.069
12701.000			-12.276			-3.069
12801.000			-12.275			-3.069
12900.000			-12.273			-3.068
13000.000			-12.271			-3.068
13101.000			-12.271			-3.068
13200.000			-12.269			-3.067
13300.000			-12.267			-3.067
13402.000			-12.266			-3.066
13501.000			-12.265			-3.066
13600.000			-12.264			-3.066
13701.000			-12.262			-3.065
13800.000			-12.261			-3.065
13900.000			-12.260			-3.065
14001.000			-12.258			-3.065
14101.000			-12.257			-3.064
14201.000			-12.256			-3.064
14301.000			-12.254			-3.064
14400.000			-12.253			-3.063
14500.000			-12.251			-3.063
14601.000			-12.250			-3.062
14700.000			-12.249			-3.062
14800.000			-12.248			-3.062
14902.000			-12.247			-3.062
15001.000			-12.246			-3.061
15100.000			-12.244			-3.061
15200.000			-12.242			-3.061
15300.000			-12.241			-3.060
15401.000			-12.241			-3.060
15500.000			-12.239			-3.060
15600.000			-12.238			-3.059
15702.000			-12.237			-3.059
15801.000			-12.236			-3.059
15900.000			-12.233			-3.058
16001.000			-12.232			-3.058
16100.000			-12.231			-3.058
16200.000			-12.230			-3.057
16301.000			-12.229			-3.057
16400.000			-12.229			-3.057
16501.000			-12.228			-3.057
16602.000			-12.226			-3.057
16700.000			-12.225			-3.056
16800.000			-12.223			-3.056
16901.000			-12.222			-3.056
17000.000			-12.222			-3.055
17100.000			-12.221			-3.055
17202.000			-12.220			-3.055
17301.000			-12.218			-3.055
17400.000			-12.217			-3.054
17501.000			-12.217			-3.054
17600.000			-12.217			-3.054
17700.000			-12.215			-3.054
17801.000			-12.213			-3.053
17900.000			-12.212			-3.053
18001.000			-12.211			-3.053
18102.000			-12.209			-3.052
18200.000			-12.208			-3.052
18300.000			-12.209			-3.052
18400.000			-12.208			-3.052
18500.000			-12.207			-3.052
18601.000			-12.205			-3.051
18700.000			-12.204			-3.051
18801.000			-12.202			-3.051
18902.000			-12.200			-3.050
19000.000			-12.199			-3.050
19100.000			-12.199			-3.050
19201.000			-12.199			-3.050
19300.000			-12.198			-3.050
19400.000			-12.197			-3.049
19501.000			-12.195			-3.049
19601.000			-12.193			-3.048
19701.000			-12.193			-3.048
19801.000			-12.193			-3.048
19900.000			-12.192			-3.048
20000.000			-12.191			-3.048
20101.000			-12.191			-3.048
20200.000			-12.189			-3.047
20300.000			-12.189			-3.047
20402.000			-12.188			-3.047
20501.000			-12.186			-3.047
20600.000			-12.184			-3.046
20701.000			-12.184			-3.046
20800.000			-12.184			-3.046
20900.000			-12.181			-3.045
21001.000			-12.182			-3.045
21101.000			-12.181			-3.045
21201.000			-12.179			-3.045
21301.000			-12.178			-3.044
21400.000			-12.179			-3.045
21500.000			-12.178			-3.045
21600.000			-12.176			-3.044
21700.000			-12.176			-3.044
21801.000			-12.175			-3.044
21901.000			-12.174			-3.044
22001.000			-12.173			-3.043
22101.000			-12.172			-3.043
22200.000			-12.171			-3.043
22300.000			-12.170			-3.043
22401.000			-12.169			-3.042
22500.000			-12.168			-3.042
22600.000			-12.168			-3.042
22702.000			-12.167			-3.042
22801.000			-12.166			-3.042
22900.000			-12.166			-3.041
23001.000			-12.165			-3.041
23100.000			-12.163			-3.041
23200.000			-12.163			-3.041
23301.000			-12.162			-3.040
23400.000			-12.161			-3.040
23501.000			-12.160			-3.040
23602.000			-12.160			-3.040
23700.000			-12.159			-3.040
23800.000			-12.159			-3.040
23901.000			-12.158			-3.039
24000.000			-12.156			-3.039
24100.000			-12.154			-3.039
24201.000			-12.154			-3.038
24301.000			-12.154			-3.039
24401.000			-12.154			-3.038
24501.000			-12.151			-3.038
24600.000			-12.150			-3.037
24700.000			-12.151			-3.038
24800.000			-12.151			-3.038
24900.000			-12.150			-3.038
25001.000			-12.150			-3.037
25101.000			-12.150			-3.037
25201.000			-12.148			-3.037
25301.000			-12.146			-3.037
25400.000			-12.146			-3.037
25500.000			-12.145			-3.036
25601.000			-12.145			-3.036
25700.000			-12.144			-3.036
25800.000			-12.141			-3.035
25902.000			-12.141			-3.035
26001.000			-12.141			-3.035
26100.000			-12.140			-3.035
26201.000			-12.140			-3.035
26300.000			-12.139			-3.035
26400.000			-12.138			-3.034
26501.000			-12.137			-3.034
26601.000			-12.137			-3.034
26701.000			-12.135			-3.034
26801.000			-12.135			-3.034
26900.000			-12.135			-3.034
27000.000			-12.135			-3.034
27101.000			-12.133			-3.033
27200.000			-12.131			-3.033
27300.000			-12.131			-3.033
27402.000			-12.131			-3.033
27501.000			-12.130			-3.032
27600.000			-12.129			-3.032
27701.000			-12.130			-3.032
27800.000			-12.129			-3.032
27900.000			-12.125			-3.031
28000.000			-12.126			-3.031
28100.000			-12.126			-3.032
28202.000			-12.126			-3.032
28301.000			-12.125			-3.031
28400.000			-12.124			-3.031
28501.000			-12.124			-3.031
28600.000			-12.123			-3.031
28700.000			-12.122			-3.031
28801.000			-12.122			-3.030
28900.000			-12.121			-3.030
29001.000			-12.120			-3.030
29102.000			-12.119			-3.030
29200.000			-12.119			-3.030
29300.000			-12.119			-3.030
29401.000			-12.117			-3.029
29500.000			-12.116			-3.029
29600.000			-12.116			-3.029
29702.000			-12.116			-3.029
29801.000			-12.115			-3.029
29901.000			-12.114			-3.029
30001.000			-12.114			-3.029
30100.000			-12.112			-3.028
30200.000			-12.111			-3.028
30301.000			-12.111			-3.028
30400.000			-12.110			-3.028
30501.000			-12.109			-3.027
30602.000			-12.109			-3.027
30700.000			-12.109			-3.027
30800.000			-12.108			-3.027
30901.000			-12.108			-3.027
31000.000			-12.106			-3.027
31100.000			-12.105			-3.026
31202.000			-12.105			-3.026
31301.000			-12.106			-3.027
31401.000			-12.106			-3.026
31500.000			-12.104			-3.026
31600.000			-12.104			-3.026
31701.000			-12.103			-3.026
31800.000			-12.103			-3.026
31900.000			-12.102			-3.026
32002.000			-12.101			-3.025
32101.000			-12.101			-3.025
32200.000			-12.099			-3.025
32301.000			-12.099			-3.025
32400.000			-12.099			-3.025
32500.000			-12.099			-3.025
32601.000			-12.098			-3.024
32700.000			-12.096			-3.024
32801.000			-12.096			-3.024
32902.000			-12.097			-3.024
33000.000			-12.095			-3.024
33100.000			-12.094			-3.024
33201.000			-12.094			-3.024
33300.000			-12.093			-3.023
33400.000			-12.092			-3.023
33502.000			-12.092			-3.023
33601.000			-12.091			-3.023
33700.000			-12.091			-3.023
33801.000			-12.091			-3.023
33900.000			-12.089			-3.022
34000.000			-12.089			-3.022
34101.000			-12.088			-3.022
34200.000			-12.089			-3.022
34302.000			-12.088			-3.022
34401.000			-12.088			-3.022
34501.000			-12.088			-3.022
34601.000			-12.084			-3.021
34700.000			-12.085			-3.021
34800.000			-12.084			-3.021
34901.000			-12.085			-3.021
35000.000			-12.084			-3.021
35101.000			-12.083			-3.021
35202.000			-12.083			-3.021
35300.000			-12.083			-3.021
35400.000			-12.081			-3.020
35501.000			-12.080			-3.020
35600.000			-12.080			-3.020
35700.000			-12.080			-3.020
35801.000			-12.080			-3.020
35901.000			-12.080			-3.020
36001.000			-12.079			-3.020
36101.000			-12.077			-3.019
36200.000			-12.076			-3.019
36300.000			-12.075			-3.019
36401.000			-12.075			-3.019
36500.000			-12.074			-3.019
36600.000			-12.074			-3.018
36702.000			-12.073			-3.018
36801.000			-12.074			-3.018
36900.000			-12.074			-3.018
37001.000			-12.073			-3.018
37100.000			-12.073			-3.018
37200.000			-12.072			-3.018
37301.000			-12.071			-3.018
37400.000			-12.070			-3.018
37502.000			-12.070			-3.018
37601.000			-12.071			-3.018
37700.000			-12.070			-3.018
37801.000			-12.069			-3.017
37900.000			-12.067			-3.017
38000.000			-12.067			-3.017
38101.000			-12.067			-3.017
38200.000			-12.067			-3.017
38301.000			-12.066			-3.016
38402.000			-12.065			-3.016
38500.000			-12.064			-3.016
38600.000			-12.065			-3.016
38701.000			-12.064			-3.016
38800.000			-12.064			-3.016
38900.000			-12.064			-3.016
39001.000			-12.063			-3.016
39101.000			-12.062			-3.016
39201.000			-12.062			-3.015
39301.000			-12.061			-3.015
39400.000			-12.061			-3.015
39500.000			-12.060			-3.015
39601.000			-12.059			-3.015
39700.000			-12.059			-3.015
39800.000			-12.059			-3.015
39902.000			-12.058			-3.015
40001.000			-12.058			-3.014
40100.000			-12.057			-3.014
40201.000			-12.056			-3.014
40300.000			-12.056			-3.014
40400.000			-12.057			-3.014
40501.000			-12.056			-3.014
40601.000			-12.055			-3.014
40702.000			-12.054			-3.014
40801.000			-12.053			-3.013
40900.000			-12.052			-3.013
41001.000			-12.053			-3.013
41100.000			-12.052			-3.013
41200.000			-12.051			-3.013
41301.000			-12.051			-3.013
41401.000			-12.051			-3.013
41501.000			-12.051			-3.013
41601.000			-12.050			-3.012
41700.000			-12.050			-3.012
41800.000			-12.049			-3.012
41901.000			-12.049			-3.012
42000.000			-12.047			-3.012
42100.000			-12.048			-3.012
42202.000			-12.047			-3.012
42301.000			-12.046			-3.012
42400.000			-12.046			-3.012
42501.000			-12.046			-3.012
42600.000			-12.045			-3.011
42700.000			-12.045			-3.011
42801.000			-12.044			-3.011
42901.000			-12.043			-3.011
43001.000			-12.044			-3.011
43101.000			-12.044			-3.011
43200.000			-12.043			-3.011
43300.000			-12.042			-3.011
43401.000			-12.041			-3.010
43500.000			-12.041			-3.010
43600.000			-12.041			-3.010
43702.000			-12.040			-3.010
43801.000			-12.040			-3.010
43900.000			-12.040			-3.010
44000.000			-12.039			-3.010
44100.000			-12.039			-3.010
44201.000			-12.038			-3.010
44300.000			-12.039			-3.010
44400.000			-12.037			-3.009
44502.000			-12.037			-3.009
44601.000			-12.037			-3.009
44700.000			-12.036			-3.009
44801.000			-12.036			-3.009
44900.000			-12.034			-3.009
45000.000			-12.034			-3.008
45101.000			-12.034			-3.008
45201.000			-12.035			-3.009
45301.000			-12.033			-3.008
45401.000			-12.032			-3.008
45500.000			-12.033			-3.008
45600.000			-12.031			-3.008
45701.000			-12.031			-3.008
45800.000			-12.030			-3.007
45900.000			-12.030			-3.008
46002.000			-12.031			-3.008
46101.000			-12.031			-3.008
46200.000			-12.030			-3.007
46301.000			-12.028			-3.007
46400.000			-12.028			-3.007
46500.000			-12.028			-3.007
46601.000			-12.028			-3.007
46700.000			-12.027			-3.007
46801.000			-12.026			-3.007
46902.000			-12.026			-3.007
47000.000			-12.026			-3.006
47100.000			-12.026			-3.007
47200.000			-12.025			-3.006
47300.000			-12.024			-3.006
47401.000			-12.023			-3.006
47500.000			-12.023			-3.006
47601.000			-12.023			-3.006
47702.000			-12.023			-3.006
47800.000			-12.023			-3.006
47900.000			-12.021			-3.005
48001.000			-12.021			-3.005
48100.000			-12.022			-3.005
48200.000			-12.021			-3.005
48302.000			-12.020			-3.005
48401.000			-12.019			-3.005
48500.000			-12.020			-3.005
48601.000			-12.019			-3.005
48700.000			-12.019			-3.005
48800.000			-12.018			-3.005
48901.000			-12.019			-3.005
49000.000			-12.018			-3.005
49101.000			-12.018			-3.004
49202.000			-12.017			-3.004
49300.000			-12.017			-3.004
49400.000			-12.016			-3.004
49501.000			-12.016			-3.004
49600.000			-12.015			-3.004
49700.000			-12.014			-3.004
49801.000			-12.014			-3.003
49901.000			-12.014			-3.003
50001.000			-12.013			-3.003
50101.000			-12.013			-3.003
50200.000			-12.012			-3.003
50300.000			-12.011			-3.003
50400.000			-12.012			-3.003
50500.000			-12.011			-3.003
50602.000			-12.012			-3.003
50701.000			-12.011			-3.003
50801.000			-12.010			-3.003
50901.000			-12.011			-3.003
51000.000			-12.010			-3.003
51100.000			-12.009			-3.002
51201.000			-12.009			-3.002
51300.000			-12.009			-3.002
51401.000			-12.008			-3.002
51502.000			-12.008			-3.002
51600.000			-12.007			-3.002
51700.000			-12.007			-3.002
51801.000			-12.007			-3.002
51900.000			-12.007			-3.002
52000.000			-12.005			-3.001
52101.000			-12.005			-3.001
52201.000			-12.006			-3.001
52301.000			-12.005			-3.001
52401.000			-12.004			-3.001
52500.000			-12.004			-3.001
52600.000			-12.004			-3.001
52701.000			-12.004			-3.001
52800.000			-12.004			-3.001
52901.000			-12.003			-3.001
53002.000			-12.001			-3.000
53100.000			-12.002			-3.000
53200.000			-12.001			-3.000
53301.000			-12.000			-3.000
53400.000			-12.000			-3.000
53500.000			-12.000			-3.000
53602.000			-12.001			-3.000
53701.000			-11.999			-3.000
53802.000			-11.999			-3.000
53900.000			-11.999			-3.000
54000.000			-11.998			-3.000
54101.000			-11.997			-2.999
54200.000			-11.998			-2.999
54300.000			-11.998			-2.999
54401.000			-11.997			-2.999
54501.000			-11.996			-2.999
54601.000			-11.996			-2.999
54701.000			-11.995			-2.999
54800.000			-11.995			-2.999
54900.000			-11.995			-2.999
55001.000			-11.994			-2.999
55100.000			-11.994			-2.998
55200.000			-11.994			-2.998
55302.000			-11.993			-2.998
55401.000			-11.993			-2.998
55500.000			-11.994			-2.998
55601.000			-11.992			-2.998
55700.000			-11.992			-2.998
55800.000			-11.992			-2.998
55901.000			-11.991			-2.998
56000.000			-11.991			-2.998
56100.000			-11.991			-2.998
56202.000			-11.991			-2.998
56301.000			-11.990			-2.998
56400.000			-11.990			-2.997
56501.000			-11.988			-2.997
56600.000			-11.988			-2.997
56700.000			-11.989			-2.997
56800.000			-11.989			-2.997
56900.000			-11.988			-2.997
57002.000			-11.987			-2.997
57101.000			-11.987			-2.997
57200.000			-11.988			-2.997
57301.000			-11.987			-2.997
57400.000			-11.986			-2.996
57500.000			-11.985			-2.996
57601.000			-11.985			-2.996
57700.000			-11.985			-2.996
57801.000			-11.985			-2.996
57902.000			-11.986			-2.996
58001.000			-11.985			-2.996
58100.000			-11.984			-2.996
58201.000			-11.984			-2.996
58300.000			-11.984			-2.996
58400.000			-11.983			-2.996
58501.000			-11.982			-2.995
58600.000			-11.981			-2.995
58701.000			-11.982			-2.995
58802.000			-11.982			-2.996
58900.000			-11.980			-2.995
59000.000			-11.980			-2.995
59101.000			-11.981			-2.995
59200.000			-11.981			-2.995
59300.000			-11.980			-2.995
59401.000			-11.979			-2.995
59501.000			-11.978			-2.995
59601.000			-11.978			-2.995
59701.000			-11.979			-2.995
59800.000			-11.979			-2.995
59900.000			-11.978			-2.995
60000.000			-11.977			-2.994
60100.000			-11.978			-2.994
60201.000			-11.977			-2.994
60301.000			-11.976			-2.994
60401.000			-11.976			-2.994
60501.000			-11.976			-2.994
60600.000			-11.975			-2.994
60700.000			-11.974			-2.994
60801.000			-11.974			-2.993
60900.000			-11.974			-2.994
61000.000			-11.974			-2.993
61101.000			-11.974			-2.993
61201.000			-11.974			-2.994
61301.000			-11.974			-2.993
61401.000			-11.973			-2.993
61500.000			-11.973			-2.993
61600.000			-11.971			-2.993
61701.000			-11.971			-2.993
61800.000			-11.971			-2.993
61900.000			-11.971			-2.993
62002.000			-11.971			-2.993
62101.000			-11.971			-2.993
62200.000			-11.969			-2.992
62301.000			-11.970			-2.992
62400.000			-11.969			-2.992
62500.000			-11.968			-2.992
62601.000			-11.969			-2.992
62700.000			-11.969			-2.992
62801.000			-11.968			-2.992
62902.000			-11.966			-2.991
63000.000			-11.966			-2.991
63100.000			-11.966			-2.992
63200.000			-11.965			-2.991
63300.000			-11.966			-2.992
63401.000			-11.967			-2.992
63500.000			-11.966			-2.992
63601.000			-11.965			-2.991
63702.000			-11.964			-2.991
63800.000			-11.964			-2.991
63900.000			-11.964			-2.991
64001.000			-11.964			-2.991
64100.000			-11.965			-2.991
64200.000			-11.964			-2.991
64301.000			-11.962			-2.991
64401.000			-11.963			-2.991
64501.000			-11.963			-2.991
64601.000			-11.963			-2.991
64700.000			-11.962			-2.990
64800.000			-11.961			-2.990
64901.000			-11.962			-2.990
65000.000			-11.961			-2.990
65100.000			-11.960			-2.990
65202.000			-11.961			-2.990
65301.000			-11.960			-2.990
65400.000			-11.959			-2.990
65501.000			-11.959			-2.990
65600.000			-11.959			-2.990
65700.000			-11.959			-2.990
65801.000			-11.959			-2.990
65900.000			-11.959			-2.990
66001.000			-11.958			-2.990
66102.000			-11.958			-2.990
66200.000			-11.958			-2.990
66300.000			-11.958			-2.989
66400.000			-11.957			-2.989
66500.000			-11.956			-2.989
66601.000			-11.957			-2.989
66700.000			-11.956			-2.989
66800.000			-11.956			-2.989
66902.000			-11.956			-2.989
67001.000			-11.956			-2.989
67100.000			-11.955			-2.989
67201.000			-11.953			-2.988
67300.000			-11.953			-2.988
67400.000			-11.953			-2.988
67501.000			-11.952			-2.988
67600.000			-11.952			-2.988
67701.000			-11.952			-2.988
67802.000			-11.952			-2.988
67900.000			-11.953			-2.988
68000.000			-11.953			-2.988
68101.000			-11.952			-2.988
68200.000			-11.951			-2.988
68300.000			-11.949			-2.987
68401.000			-11.949			-2.987
68501.000			-11.950			-2.988
68601.000			-11.950			-2.988
68701.000			-11.949			-2.987
68800.000			-11.950			-2.987
