# Acquired on 26/01/2024 10:35:39 
# SPIDER: Creep_-3mm_HM077x145x38AA-2
# CREEP MEASUREMENT

# time [ms]		force [N]		stiffness [N/mm]
1.000			12.960			-4.320
104.000			13.908			-4.636
205.000			14.207			-4.736
304.000			14.203			-4.734
403.000			14.136			-4.712
505.000			14.113			-4.704
604.000			14.092			-4.697
704.000			14.075			-4.692
805.000			14.060			-4.687
903.000			14.046			-4.682
1004.000			14.033			-4.678
1105.000			14.010			-4.670
1204.000			14.000			-4.667
1304.000			13.989			-4.663
1404.000			13.979			-4.660
1504.000			13.972			-4.657
1603.000			13.964			-4.655
1704.000			13.955			-4.652
1804.000			13.946			-4.649
1905.000			13.933			-4.644
2004.000			13.926			-4.642
2103.000			13.921			-4.640
2205.000			13.915			-4.638
2304.000			13.908			-4.636
2404.000			13.903			-4.634
2505.000			13.897			-4.632
2604.000			13.885			-4.628
2704.000			13.881			-4.627
2804.000			13.876			-4.625
2904.000			13.871			-4.624
3004.000			13.867			-4.622
3105.000			13.862			-4.621
3204.000			13.857			-4.619
3304.000			13.850			-4.617
3405.000			13.845			-4.615
3504.000			13.841			-4.614
3604.000			13.837			-4.612
3705.000			13.832			-4.611
3804.000			13.829			-4.610
3904.000			13.826			-4.609
4004.000			13.823			-4.608
4104.000			13.815			-4.605
4204.000			13.813			-4.604
4305.000			13.809			-4.603
4404.000			13.805			-4.602
4504.000			13.802			-4.601
4605.000			13.799			-4.600
4703.000			13.796			-4.599
4805.000			13.789			-4.596
4904.000			13.786			-4.595
5004.000			13.784			-4.595
5105.000			13.781			-4.594
5203.000			13.778			-4.593
5304.000			13.776			-4.592
5405.000			13.773			-4.591
5504.000			13.768			-4.589
5604.000			13.765			-4.588
5705.000			13.762			-4.587
5804.000			13.759			-4.586
5903.000			13.758			-4.586
6005.000			13.756			-4.585
6104.000			13.752			-4.584
6204.000			13.749			-4.583
6305.000			13.745			-4.582
6404.000			13.743			-4.581
6504.000			13.741			-4.580
6604.000			13.740			-4.580
6704.000			13.737			-4.579
6804.000			13.734			-4.578
6905.000			13.731			-4.577
7004.000			13.728			-4.576
7104.000			13.725			-4.575
7205.000			13.722			-4.574
7304.000			13.722			-4.574
7404.000			13.719			-4.573
7505.000			13.717			-4.572
7604.000			13.716			-4.572
7704.000			13.711			-4.570
7803.000			13.709			-4.570
7904.000			13.708			-4.569
8005.000			13.706			-4.569
8104.000			13.705			-4.568
8204.000			13.702			-4.567
8305.000			13.699			-4.566
8404.000			13.698			-4.566
8503.000			13.695			-4.565
8605.000			13.693			-4.564
8704.000			13.691			-4.564
8804.000			13.690			-4.563
8905.000			13.688			-4.563
9004.000			13.687			-4.562
9104.000			13.683			-4.561
9204.000			13.681			-4.560
9304.000			13.679			-4.560
9404.000			13.677			-4.559
9505.000			13.676			-4.559
9604.000			13.675			-4.558
9703.000			13.674			-4.558
9805.000			13.672			-4.557
9904.000			13.669			-4.556
10004.000			13.668			-4.556
10105.000			13.666			-4.555
10204.000			13.664			-4.555
10304.000			13.662			-4.554
10404.000			13.661			-4.554
10504.000			13.659			-4.553
10604.000			13.656			-4.552
10705.000			13.655			-4.552
10804.000			13.654			-4.551
10904.000			13.652			-4.551
11005.000			13.651			-4.550
11103.000			13.650			-4.550
11205.000			13.649			-4.550
11304.000			13.647			-4.549
11404.000			13.644			-4.548
11505.000			13.643			-4.548
11604.000			13.642			-4.547
11704.000			13.641			-4.547
11804.000			13.640			-4.547
11904.000			13.638			-4.546
12004.000			13.636			-4.545
12105.000			13.634			-4.545
12204.000			13.633			-4.544
12304.000			13.631			-4.544
12405.000			13.630			-4.543
12503.000			13.630			-4.543
12604.000			13.629			-4.543
12705.000			13.627			-4.542
12804.000			13.625			-4.542
12904.000			13.623			-4.541
13004.000			13.622			-4.541
13104.000			13.621			-4.540
13204.000			13.619			-4.540
13305.000			13.618			-4.539
13404.000			13.617			-4.539
13504.000			13.616			-4.539
13605.000			13.614			-4.538
13703.000			13.613			-4.538
13804.000			13.611			-4.537
13905.000			13.610			-4.537
14004.000			13.609			-4.536
14104.000			13.607			-4.536
14204.000			13.606			-4.535
14304.000			13.606			-4.535
14403.000			13.604			-4.535
14504.000			13.603			-4.534
14604.000			13.601			-4.534
14705.000			13.599			-4.533
14804.000			13.598			-4.533
14904.000			13.599			-4.533
15005.000			13.597			-4.532
15103.000			13.596			-4.532
15204.000			13.594			-4.531
15305.000			13.593			-4.531
15404.000			13.592			-4.531
15504.000			13.590			-4.530
15605.000			13.589			-4.530
15704.000			13.588			-4.529
15803.000			13.587			-4.529
15905.000			13.587			-4.529
16004.000			13.586			-4.529
16104.000			13.584			-4.528
16205.000			13.582			-4.527
16304.000			13.581			-4.527
16404.000			13.581			-4.527
16504.000			13.578			-4.526
16604.000			13.578			-4.526
16704.000			13.578			-4.526
16805.000			13.577			-4.526
16904.000			13.576			-4.525
17004.000			13.574			-4.525
17105.000			13.573			-4.524
17203.000			13.571			-4.524
17304.000			13.571			-4.524
17405.000			13.570			-4.523
17504.000			13.569			-4.523
17605.000			13.568			-4.523
17704.000			13.569			-4.523
17804.000			13.568			-4.523
17904.000			13.566			-4.522
18004.000			13.564			-4.521
18104.000			13.562			-4.521
18205.000			13.561			-4.520
18304.000			13.561			-4.520
18403.000			13.560			-4.520
18505.000			13.559			-4.520
18604.000			13.559			-4.520
18704.000			13.557			-4.519
18805.000			13.556			-4.519
18904.000			13.556			-4.519
19004.000			13.554			-4.518
19104.000			13.553			-4.518
19204.000			13.552			-4.517
19304.000			13.551			-4.517
19405.000			13.550			-4.517
19504.000			13.550			-4.517
19604.000			13.549			-4.516
19705.000			13.548			-4.516
19803.000			13.546			-4.515
19904.000			13.546			-4.515
20005.000			13.545			-4.515
20104.000			13.542			-4.514
20204.000			13.542			-4.514
20305.000			13.542			-4.514
20404.000			13.541			-4.514
20503.000			13.539			-4.513
20605.000			13.539			-4.513
20704.000			13.539			-4.513
20805.000			13.539			-4.513
20904.000			13.536			-4.512
21004.000			13.535			-4.512
21105.000			13.533			-4.511
21203.000			13.533			-4.511
21304.000			13.533			-4.511
21405.000			13.532			-4.511
21504.000			13.532			-4.511
21604.000			13.530			-4.510
21704.000			13.530			-4.510
21804.000			13.529			-4.510
21904.000			13.529			-4.510
22005.000			13.528			-4.509
22104.000			13.527			-4.509
22204.000			13.526			-4.509
22305.000			13.525			-4.508
22403.000			13.523			-4.508
22504.000			13.523			-4.508
22605.000			13.522			-4.507
22704.000			13.521			-4.507
22804.000			13.521			-4.507
22905.000			13.522			-4.507
23004.000			13.520			-4.507
23103.000			13.519			-4.506
23205.000			13.517			-4.506
23304.000			13.517			-4.506
23404.000			13.516			-4.505
23505.000			13.515			-4.505
23603.000			13.515			-4.505
23704.000			13.514			-4.505
23805.000			13.512			-4.504
23904.000			13.512			-4.504
24005.000			13.512			-4.504
24104.000			13.510			-4.503
24204.000			13.510			-4.503
24304.000			13.508			-4.503
24404.000			13.508			-4.503
24504.000			13.507			-4.502
24605.000			13.506			-4.502
24704.000			13.506			-4.502
24804.000			13.505			-4.502
24905.000			13.504			-4.501
25003.000			13.503			-4.501
25104.000			13.502			-4.501
25205.000			13.502			-4.501
25304.000			13.501			-4.500
25404.000			13.501			-4.500
25504.000			13.500			-4.500
25604.000			13.499			-4.500
25703.000			13.498			-4.499
25805.000			13.498			-4.499
25904.000			13.497			-4.499
26004.000			13.495			-4.498
26105.000			13.496			-4.499
26204.000			13.494			-4.498
26304.000			13.494			-4.498
26404.000			13.494			-4.498
26504.000			13.492			-4.497
26604.000			13.491			-4.497
26705.000			13.490			-4.497
26804.000			13.490			-4.497
26903.000			13.489			-4.496
27005.000			13.489			-4.496
27104.000			13.489			-4.496
27205.000			13.488			-4.496
27304.000			13.487			-4.496
27404.000			13.485			-4.495
27505.000			13.484			-4.495
27604.000			13.484			-4.495
27704.000			13.484			-4.495
27804.000			13.483			-4.494
27904.000			13.482			-4.494
28004.000			13.481			-4.494
28105.000			13.482			-4.494
28204.000			13.480			-4.493
28303.000			13.479			-4.493
28405.000			13.479			-4.493
28504.000			13.479			-4.493
28604.000			13.477			-4.492
28705.000			13.477			-4.492
28804.000			13.478			-4.493
28904.000			13.477			-4.492
29004.000			13.475			-4.492
29104.000			13.474			-4.491
29203.000			13.474			-4.491
29305.000			13.473			-4.491
29404.000			13.473			-4.491
29504.000			13.472			-4.491
29605.000			13.471			-4.490
29703.000			13.471			-4.490
29804.000			13.470			-4.490
29905.000			13.470			-4.490
30004.000			13.469			-4.490
30104.000			13.468			-4.489
30204.000			13.467			-4.489
30304.000			13.466			-4.489
30403.000			13.466			-4.489
30504.000			13.465			-4.488
30604.000			13.465			-4.488
30705.000			13.465			-4.488
30804.000			13.464			-4.488
30904.000			13.463			-4.488
31005.000			13.462			-4.487
31103.000			13.461			-4.487
31204.000			13.460			-4.487
31305.000			13.460			-4.487
31404.000			13.460			-4.487
31504.000			13.458			-4.486
31605.000			13.458			-4.486
31704.000			13.459			-4.486
31803.000			13.458			-4.486
31905.000			13.457			-4.486
32004.000			13.456			-4.485
32104.000			13.455			-4.485
32205.000			13.455			-4.485
32303.000			13.455			-4.485
32404.000			13.455			-4.485
32505.000			13.454			-4.485
32604.000			13.453			-4.484
32704.000			13.452			-4.484
32805.000			13.452			-4.484
32904.000			13.452			-4.484
33003.000			13.451			-4.484
33105.000			13.451			-4.484
33204.000			13.450			-4.483
33304.000			13.447			-4.482
33405.000			13.447			-4.482
33504.000			13.448			-4.483
33605.000			13.448			-4.483
33703.000			13.446			-4.482
33804.000			13.446			-4.482
33905.000			13.445			-4.482
34004.000			13.444			-4.481
34104.000			13.444			-4.481
34204.000			13.443			-4.481
34304.000			13.443			-4.481
34404.000			13.442			-4.481
34505.000			13.443			-4.481
34604.000			13.442			-4.481
34704.000			13.439			-4.480
34805.000			13.440			-4.480
34903.000			13.439			-4.480
35004.000			13.439			-4.480
35105.000			13.438			-4.479
35204.000			13.438			-4.479
35304.000			13.439			-4.480
35405.000			13.437			-4.479
35504.000			13.436			-4.479
35603.000			13.436			-4.479
35705.000			13.435			-4.478
35804.000			13.435			-4.478
35904.000			13.434			-4.478
36005.000			13.433			-4.478
36104.000			13.432			-4.477
36204.000			13.431			-4.477
36304.000			13.431			-4.477
36404.000			13.431			-4.477
36504.000			13.430			-4.477
36604.000			13.430			-4.477
36704.000			13.430			-4.477
36803.000			13.430			-4.477
36904.000			13.429			-4.476
37003.000			13.428			-4.476
37105.000			13.428			-4.476
37204.000			13.427			-4.476
37304.000			13.426			-4.475
37405.000			13.427			-4.476
37503.000			13.426			-4.475
37604.000			13.425			-4.475
37705.000			13.424			-4.475
37804.000			13.424			-4.475
37904.000			13.424			-4.475
38005.000			13.423			-4.474
38104.000			13.423			-4.474
38203.000			13.422			-4.474
38305.000			13.422			-4.474
38404.000			13.421			-4.474
38504.000			13.421			-4.474
38605.000			13.421			-4.474
38704.000			13.420			-4.473
38804.000			13.419			-4.473
38904.000			13.419			-4.473
39004.000			13.419			-4.473
39104.000			13.417			-4.472
39205.000			13.417			-4.472
39304.000			13.417			-4.472
39403.000			13.417			-4.472
39505.000			13.416			-4.472
39604.000			13.415			-4.472
39704.000			13.414			-4.471
39805.000			13.414			-4.471
39904.000			13.414			-4.471
40005.000			13.412			-4.471
40103.000			13.413			-4.471
40204.000			13.413			-4.471
40305.000			13.412			-4.471
40404.000			13.411			-4.470
40504.000			13.412			-4.471
40605.000			13.410			-4.470
40704.000			13.410			-4.470
40803.000			13.409			-4.470
40905.000			13.409			-4.470
41004.000			13.408			-4.469
41104.000			13.408			-4.469
41205.000			13.408			-4.469
41304.000			13.406			-4.469
41404.000			13.406			-4.469
41504.000			13.406			-4.469
41604.000			13.406			-4.469
41704.000			13.406			-4.469
41805.000			13.405			-4.468
41904.000			13.405			-4.468
42003.000			13.404			-4.468
42105.000			13.403			-4.468
42204.000			13.402			-4.467
42304.000			13.402			-4.467
42405.000			13.401			-4.467
42504.000			13.401			-4.467
42604.000			13.401			-4.467
42704.000			13.401			-4.467
42804.000			13.401			-4.467
42904.000			13.400			-4.467
43004.000			13.399			-4.466
43104.000			13.399			-4.466
43205.000			13.399			-4.466
43304.000			13.398			-4.466
43403.000			13.397			-4.466
43505.000			13.396			-4.465
43604.000			13.396			-4.465
43704.000			13.395			-4.465
43805.000			13.396			-4.465
43904.000			13.395			-4.465
44004.000			13.395			-4.465
44104.000			13.395			-4.465
44204.000			13.393			-4.464
44304.000			13.393			-4.464
44405.000			13.393			-4.464
44504.000			13.392			-4.464
44603.000			13.393			-4.464
44705.000			13.392			-4.464
44804.000			13.391			-4.464
44904.000			13.390			-4.463
45005.000			13.390			-4.463
45104.000			13.390			-4.463
45204.000			13.389			-4.463
45304.000			13.389			-4.463
45404.000			13.389			-4.463
45504.000			13.389			-4.463
45605.000			13.388			-4.463
45704.000			13.387			-4.462
45804.000			13.387			-4.462
45905.000			13.386			-4.462
46003.000			13.386			-4.462
46104.000			13.386			-4.462
46205.000			13.385			-4.462
46304.000			13.384			-4.461
46405.000			13.384			-4.461
46504.000			13.384			-4.461
46604.000			13.384			-4.461
46704.000			13.383			-4.461
46804.000			13.382			-4.461
46904.000			13.382			-4.461
47005.000			13.381			-4.460
47104.000			13.381			-4.460
47204.000			13.381			-4.460
47305.000			13.380			-4.460
47403.000			13.380			-4.460
47504.000			13.379			-4.460
47605.000			13.378			-4.459
47704.000			13.378			-4.459
47804.000			13.378			-4.459
47905.000			13.378			-4.459
48004.000			13.377			-4.459
48103.000			13.377			-4.459
48205.000			13.376			-4.459
48304.000			13.375			-4.458
48404.000			13.375			-4.458
48505.000			13.375			-4.458
48604.000			13.375			-4.458
48704.000			13.373			-4.458
48804.000			13.373			-4.458
48904.000			13.373			-4.458
49004.000			13.372			-4.457
49105.000			13.373			-4.458
49204.000			13.371			-4.457
49304.000			13.371			-4.457
49405.000			13.371			-4.457
49503.000			13.371			-4.457
49605.000			13.372			-4.457
49704.000			13.371			-4.457
49804.000			13.369			-4.456
49905.000			13.369			-4.456
50004.000			13.369			-4.456
50104.000			13.368			-4.456
50204.000			13.368			-4.456
50304.000			13.367			-4.456
50404.000			13.367			-4.456
50505.000			13.367			-4.456
50604.000			13.366			-4.455
50704.000			13.366			-4.455
50805.000			13.366			-4.455
50903.000			13.365			-4.455
51004.000			13.364			-4.455
51105.000			13.364			-4.455
51204.000			13.364			-4.455
51304.000			13.363			-4.454
51404.000			13.364			-4.455
51504.000			13.364			-4.455
51604.000			13.364			-4.455
51705.000			13.362			-4.454
51804.000			13.362			-4.454
51904.000			13.363			-4.454
52005.000			13.361			-4.454
52103.000			13.361			-4.454
52204.000			13.361			-4.454
52305.000			13.361			-4.454
52404.000			13.360			-4.453
52504.000			13.359			-4.453
52604.000			13.360			-4.453
52704.000			13.359			-4.453
52803.000			13.358			-4.453
52904.000			13.358			-4.453
53004.000			13.357			-4.452
53105.000			13.357			-4.452
53204.000			13.357			-4.452
53304.000			13.356			-4.452
53405.000			13.356			-4.452
53504.000			13.356			-4.452
53604.000			13.356			-4.452
53705.000			13.355			-4.452
53804.000			13.354			-4.451
53904.000			13.355			-4.452
54004.000			13.355			-4.452
54104.000			13.354			-4.451
54203.000			13.354			-4.451
54305.000			13.354			-4.451
54404.000			13.352			-4.451
54504.000			13.353			-4.451
54605.000			13.352			-4.451
54703.000			13.352			-4.451
54804.000			13.351			-4.450
54905.000			13.350			-4.450
55004.000			13.350			-4.450
55104.000			13.349			-4.450
55205.000			13.350			-4.450
55304.000			13.349			-4.450
55403.000			13.348			-4.449
55505.000			13.349			-4.450
55604.000			13.349			-4.450
55704.000			13.347			-4.449
55805.000			13.347			-4.449
55904.000			13.346			-4.449
56005.000			13.346			-4.449
56103.000			13.346			-4.449
56204.000			13.346			-4.449
56305.000			13.346			-4.449
56404.000			13.345			-4.448
56504.000			13.346			-4.449
56605.000			13.343			-4.448
56704.000			13.344			-4.448
56803.000			13.344			-4.448
56905.000			13.344			-4.448
57004.000			13.344			-4.448
57104.000			13.344			-4.448
57205.000			13.342			-4.447
57304.000			13.342			-4.447
57404.000			13.342			-4.447
57504.000			13.341			-4.447
57604.000			13.341			-4.447
57704.000			13.341			-4.447
57805.000			13.340			-4.447
57904.000			13.339			-4.446
58003.000			13.339			-4.446
58105.000			13.338			-4.446
58204.000			13.339			-4.446
58304.000			13.340			-4.447
58405.000			13.338			-4.446
58504.000			13.338			-4.446
58604.000			13.338			-4.446
58704.000			13.338			-4.446
58804.000			13.336			-4.445
58904.000			13.337			-4.446
59004.000			13.336			-4.445
59104.000			13.336			-4.445
59205.000			13.335			-4.445
59304.000			13.334			-4.445
59403.000			13.335			-4.445
59505.000			13.334			-4.445
59604.000			13.334			-4.445
59704.000			13.333			-4.444
59805.000			13.333			-4.444
59904.000			13.334			-4.445
60004.000			13.333			-4.444
60104.000			13.333			-4.444
60204.000			13.331			-4.444
60304.000			13.331			-4.444
60405.000			13.332			-4.444
60504.000			13.331			-4.444
60604.000			13.332			-4.444
60705.000			13.331			-4.444
60803.000			13.329			-4.443
60904.000			13.329			-4.443
61005.000			13.330			-4.443
61104.000			13.330			-4.443
61204.000			13.329			-4.443
61305.000			13.328			-4.443
61404.000			13.329			-4.443
61503.000			13.329			-4.443
61605.000			13.328			-4.443
61704.000			13.326			-4.442
61804.000			13.327			-4.442
61905.000			13.327			-4.442
62003.000			13.327			-4.442
62104.000			13.326			-4.442
62205.000			13.326			-4.442
62304.000			13.325			-4.442
62405.000			13.324			-4.441
62504.000			13.324			-4.441
62604.000			13.324			-4.441
62704.000			13.323			-4.441
62804.000			13.322			-4.441
62904.000			13.323			-4.441
63005.000			13.324			-4.441
63104.000			13.323			-4.441
63204.000			13.322			-4.441
63305.000			13.322			-4.441
63403.000			13.322			-4.441
63504.000			13.321			-4.440
63605.000			13.321			-4.440
63704.000			13.319			-4.440
63804.000			13.320			-4.440
63904.000			13.320			-4.440
64004.000			13.321			-4.440
64104.000			13.320			-4.440
64205.000			13.319			-4.440
64304.000			13.318			-4.439
64404.000			13.319			-4.440
64505.000			13.318			-4.439
64603.000			13.317			-4.439
64704.000			13.317			-4.439
64805.000			13.316			-4.439
64904.000			13.316			-4.439
65004.000			13.316			-4.439
65105.000			13.316			-4.439
65204.000			13.316			-4.439
65303.000			13.315			-4.438
65405.000			13.315			-4.438
65504.000			13.315			-4.438
65605.000			13.315			-4.438
65704.000			13.314			-4.438
65804.000			13.313			-4.438
65905.000			13.314			-4.438
66003.000			13.313			-4.438
66104.000			13.313			-4.438
66205.000			13.312			-4.437
66304.000			13.312			-4.437
66404.000			13.312			-4.437
66505.000			13.311			-4.437
66604.000			13.311			-4.437
66703.000			13.310			-4.437
66805.000			13.310			-4.437
66904.000			13.310			-4.437
67004.000			13.310			-4.437
67105.000			13.310			-4.437
67203.000			13.310			-4.437
67304.000			13.310			-4.437
67405.000			13.309			-4.436
67504.000			13.308			-4.436
67604.000			13.307			-4.436
67705.000			13.308			-4.436
67804.000			13.307			-4.436
67903.000			13.306			-4.435
68005.000			13.306			-4.435
68104.000			13.306			-4.435
68204.000			13.306			-4.435
68305.000			13.306			-4.435
68404.000			13.305			-4.435
68504.000			13.305			-4.435
68603.000			13.305			-4.435
68704.000			13.304			-4.435
68805.000			13.303			-4.434
68904.000			13.304			-4.435
69004.000			13.303			-4.434
69105.000			13.302			-4.434
69204.000			13.302			-4.434
69303.000			13.302			-4.434
69405.000			13.303			-4.434
69504.000			13.303			-4.434
69604.000			13.302			-4.434
69705.000			13.301			-4.434
69804.000			13.301			-4.434
69904.000			13.301			-4.434
70004.000			13.301			-4.434
70104.000			13.300			-4.433
70204.000			13.301			-4.434
70305.000			13.301			-4.434
70404.000			13.300			-4.433
70504.000			13.300			-4.433
70605.000			13.300			-4.433
70703.000			13.300			-4.433
70804.000			13.298			-4.433
70905.000			13.298			-4.433
71004.000			13.298			-4.433
71104.000			13.298			-4.433
71205.000			13.298			-4.433
