# Acquired on 26/01/2024 11:53:59 
# SPIDER: Creep_8mm_GRPCNT1454A-3
# CREEP MEASUREMENT

# time [ms]		force [N]		stiffness [N/mm]
0.000			-35.899			-4.487
104.000			-36.633			-4.579
204.000			-36.694			-4.587
304.000			-36.107			-4.513
404.000			-35.880			-4.485
504.000			-35.690			-4.461
604.000			-35.526			-4.441
704.000			-35.384			-4.423
804.000			-35.258			-4.407
904.000			-35.144			-4.393
1004.000			-34.944			-4.368
1105.000			-34.857			-4.357
1204.000			-34.775			-4.347
1304.000			-34.700			-4.338
1405.000			-34.629			-4.329
1503.000			-34.561			-4.320
1604.000			-34.498			-4.312
1705.000			-34.382			-4.298
1804.000			-34.326			-4.291
1904.000			-34.275			-4.284
2005.000			-34.226			-4.278
2104.000			-34.178			-4.272
2203.000			-34.133			-4.267
2305.000			-34.090			-4.261
2404.000			-34.048			-4.256
2504.000			-33.969			-4.246
2605.000			-33.931			-4.241
2703.000			-33.896			-4.237
2804.000			-33.861			-4.233
2905.000			-33.826			-4.228
3004.000			-33.792			-4.224
3104.000			-33.761			-4.220
3205.000			-33.699			-4.212
3304.000			-33.671			-4.209
3403.000			-33.641			-4.205
3505.000			-33.614			-4.202
3604.000			-33.586			-4.198
3704.000			-33.559			-4.195
3805.000			-33.533			-4.192
3904.000			-33.483			-4.185
4005.000			-33.459			-4.182
4103.000			-33.436			-4.180
4204.000			-33.413			-4.177
4305.000			-33.391			-4.174
4404.000			-33.369			-4.171
4504.000			-33.347			-4.168
4604.000			-33.305			-4.163
4704.000			-33.284			-4.161
4804.000			-33.264			-4.158
4905.000			-33.245			-4.156
5004.000			-33.225			-4.153
5104.000			-33.207			-4.151
5205.000			-33.188			-4.149
5303.000			-33.169			-4.146
5404.000			-33.134			-4.142
5505.000			-33.116			-4.140
5604.000			-33.100			-4.137
5704.000			-33.083			-4.135
5804.000			-33.065			-4.133
5904.000			-33.049			-4.131
6004.000			-33.033			-4.129
6105.000			-33.001			-4.125
6204.000			-32.987			-4.123
6304.000			-32.971			-4.121
6405.000			-32.957			-4.120
6503.000			-32.942			-4.118
6604.000			-32.927			-4.116
6705.000			-32.913			-4.114
6804.000			-32.884			-4.110
6904.000			-32.871			-4.109
7003.000			-32.857			-4.107
7104.000			-32.843			-4.105
7205.000			-32.831			-4.104
7304.000			-32.818			-4.102
7404.000			-32.805			-4.101
7505.000			-32.779			-4.097
7604.000			-32.767			-4.096
7703.000			-32.755			-4.094
7805.000			-32.743			-4.093
7904.000			-32.731			-4.091
8004.000			-32.719			-4.090
8105.000			-32.708			-4.088
8204.000			-32.696			-4.087
8304.000			-32.673			-4.084
8404.000			-32.661			-4.083
8504.000			-32.650			-4.081
8604.000			-32.640			-4.080
8705.000			-32.629			-4.079
8804.000			-32.618			-4.077
8903.000			-32.608			-4.076
9005.000			-32.586			-4.073
9104.000			-32.575			-4.072
9204.000			-32.566			-4.071
9305.000			-32.556			-4.069
9404.000			-32.546			-4.068
9504.000			-32.536			-4.067
9604.000			-32.526			-4.066
9704.000			-32.507			-4.063
9804.000			-32.497			-4.062
9905.000			-32.488			-4.061
10004.000			-32.478			-4.060
10104.000			-32.468			-4.059
10205.000			-32.458			-4.057
10303.000			-32.449			-4.056
10405.000			-32.431			-4.054
10504.000			-32.422			-4.053
10604.000			-32.414			-4.052
10705.000			-32.405			-4.051
10803.000			-32.397			-4.050
10904.000			-32.389			-4.049
11005.000			-32.380			-4.047
11104.000			-32.371			-4.046
11204.000			-32.354			-4.044
11305.000			-32.346			-4.043
11404.000			-32.339			-4.042
11503.000			-32.330			-4.041
11605.000			-32.322			-4.040
11704.000			-32.314			-4.039
11804.000			-32.307			-4.038
11905.000			-32.291			-4.036
12004.000			-32.284			-4.035
12104.000			-32.275			-4.034
12204.000			-32.267			-4.033
12304.000			-32.261			-4.033
12404.000			-32.253			-4.032
12505.000			-32.245			-4.031
12604.000			-32.231			-4.029
12704.000			-32.222			-4.028
12805.000			-32.214			-4.027
12904.000			-32.208			-4.026
13004.000			-32.201			-4.025
13105.000			-32.193			-4.024
13204.000			-32.186			-4.023
13304.000			-32.173			-4.022
13403.000			-32.167			-4.021
13504.000			-32.160			-4.020
13605.000			-32.153			-4.019
13704.000			-32.147			-4.018
13804.000			-32.139			-4.017
13905.000			-32.133			-4.017
14004.000			-32.125			-4.016
14103.000			-32.113			-4.014
14205.000			-32.106			-4.013
14304.000			-32.100			-4.012
14404.000			-32.093			-4.012
14505.000			-32.088			-4.011
14603.000			-32.081			-4.010
14704.000			-32.074			-4.009
14805.000			-32.062			-4.008
14904.000			-32.056			-4.007
15004.000			-32.050			-4.006
15105.000			-32.043			-4.005
15204.000			-32.037			-4.005
15303.000			-32.030			-4.004
15405.000			-32.024			-4.003
15504.000			-32.012			-4.002
15604.000			-32.006			-4.001
15705.000			-32.000			-4.000
15804.000			-31.995			-3.999
15904.000			-31.990			-3.999
16004.000			-31.983			-3.998
16104.000			-31.977			-3.997
16204.000			-31.967			-3.996
16305.000			-31.961			-3.995
16404.000			-31.954			-3.994
16504.000			-31.950			-3.994
16605.000			-31.944			-3.993
16703.000			-31.938			-3.992
16805.000			-31.933			-3.992
16904.000			-31.922			-3.990
17004.000			-31.917			-3.990
17105.000			-31.911			-3.989
17204.000			-31.905			-3.988
17304.000			-31.900			-3.987
17404.000			-31.894			-3.987
17504.000			-31.890			-3.986
17604.000			-31.885			-3.986
17705.000			-31.875			-3.984
17804.000			-31.870			-3.984
17904.000			-31.865			-3.983
18005.000			-31.860			-3.982
18103.000			-31.854			-3.982
18204.000			-31.848			-3.981
18305.000			-31.843			-3.980
18404.000			-31.834			-3.979
18504.000			-31.829			-3.979
18605.000			-31.824			-3.978
18704.000			-31.819			-3.977
18803.000			-31.814			-3.977
18905.000			-31.810			-3.976
19004.000			-31.806			-3.976
19104.000			-31.795			-3.974
19205.000			-31.789			-3.974
19304.000			-31.785			-3.973
19404.000			-31.780			-3.972
19504.000			-31.775			-3.972
19604.000			-31.771			-3.971
19704.000			-31.766			-3.971
19804.000			-31.762			-3.970
19904.000			-31.753			-3.969
20005.000			-31.749			-3.969
20104.000			-31.744			-3.968
20203.000			-31.739			-3.967
20305.000			-31.735			-3.967
20404.000			-31.731			-3.966
20504.000			-31.727			-3.966
20605.000			-31.717			-3.965
20703.000			-31.712			-3.964
20804.000			-31.708			-3.963
20905.000			-31.704			-3.963
21004.000			-31.699			-3.962
21104.000			-31.695			-3.962
21205.000			-31.691			-3.961
21304.000			-31.681			-3.960
21403.000			-31.678			-3.960
21505.000			-31.673			-3.959
21604.000			-31.669			-3.959
21704.000			-31.665			-3.958
21805.000			-31.660			-3.958
21904.000			-31.656			-3.957
22004.000			-31.648			-3.956
22104.000			-31.645			-3.956
22204.000			-31.640			-3.955
22304.000			-31.635			-3.954
22405.000			-31.632			-3.954
22504.000			-31.628			-3.954
22604.000			-31.624			-3.953
22705.000			-31.616			-3.952
22803.000			-31.613			-3.952
22904.000			-31.609			-3.951
23005.000			-31.604			-3.950
23104.000			-31.600			-3.950
23205.000			-31.596			-3.950
23304.000			-31.593			-3.949
23404.000			-31.588			-3.948
23504.000			-31.581			-3.948
23604.000			-31.577			-3.947
23704.000			-31.573			-3.947
23805.000			-31.569			-3.946
23904.000			-31.566			-3.946
24004.000			-31.563			-3.945
24105.000			-31.559			-3.945
24203.000			-31.551			-3.944
24304.000			-31.547			-3.943
24405.000			-31.543			-3.943
24504.000			-31.539			-3.942
24604.000			-31.536			-3.942
24704.000			-31.531			-3.941
24804.000			-31.528			-3.941
24904.000			-31.520			-3.940
25005.000			-31.517			-3.940
25104.000			-31.514			-3.939
25204.000			-31.510			-3.939
25305.000			-31.507			-3.938
25403.000			-31.503			-3.938
25504.000			-31.500			-3.937
25605.000			-31.493			-3.937
25704.000			-31.490			-3.936
25804.000			-31.485			-3.936
25905.000			-31.482			-3.935
26004.000			-31.479			-3.935
26103.000			-31.475			-3.934
26205.000			-31.471			-3.934
26304.000			-31.467			-3.933
26405.000			-31.461			-3.933
26504.000			-31.458			-3.932
26604.000			-31.454			-3.932
26705.000			-31.450			-3.931
26803.000			-31.448			-3.931
26904.000			-31.444			-3.930
27005.000			-31.441			-3.930
27104.000			-31.434			-3.929
27204.000			-31.431			-3.929
27304.000			-31.428			-3.928
27404.000			-31.424			-3.928
27504.000			-31.421			-3.928
27605.000			-31.417			-3.927
27704.000			-31.413			-3.927
27804.000			-31.408			-3.926
27905.000			-31.404			-3.926
28003.000			-31.401			-3.925
28104.000			-31.398			-3.925
28205.000			-31.395			-3.924
28304.000			-31.392			-3.924
28404.000			-31.388			-3.924
28505.000			-31.382			-3.923
28604.000			-31.379			-3.922
28703.000			-31.375			-3.922
28805.000			-31.372			-3.921
28904.000			-31.369			-3.921
29004.000			-31.367			-3.921
29105.000			-31.364			-3.921
29204.000			-31.360			-3.920
29304.000			-31.353			-3.919
29403.000			-31.351			-3.919
29504.000			-31.348			-3.918
29605.000			-31.343			-3.918
29704.000			-31.340			-3.918
29804.000			-31.339			-3.917
29905.000			-31.336			-3.917
30004.000			-31.329			-3.916
30103.000			-31.327			-3.916
30205.000			-31.324			-3.915
30304.000			-31.320			-3.915
30404.000			-31.318			-3.915
30505.000			-31.314			-3.914
30603.000			-31.311			-3.914
30704.000			-31.305			-3.913
30805.000			-31.303			-3.913
30904.000			-31.300			-3.913
31004.000			-31.297			-3.912
31105.000			-31.294			-3.912
31204.000			-31.291			-3.911
31303.000			-31.287			-3.911
31405.000			-31.282			-3.910
31504.000			-31.279			-3.910
31604.000			-31.276			-3.910
31705.000			-31.274			-3.909
31804.000			-31.271			-3.909
31904.000			-31.268			-3.908
32004.000			-31.265			-3.908
32104.000			-31.262			-3.908
32204.000			-31.256			-3.907
32305.000			-31.253			-3.907
32404.000			-31.252			-3.906
32503.000			-31.248			-3.906
32605.000			-31.245			-3.906
32704.000			-31.243			-3.905
32805.000			-31.240			-3.905
32904.000			-31.235			-3.904
33004.000			-31.231			-3.904
33105.000			-31.228			-3.904
33203.000			-31.226			-3.903
33304.000			-31.224			-3.903
33405.000			-31.221			-3.903
33504.000			-31.218			-3.902
33604.000			-31.213			-3.902
33705.000			-31.211			-3.901
33804.000			-31.208			-3.901
33903.000			-31.205			-3.901
34005.000			-31.202			-3.900
34104.000			-31.200			-3.900
34204.000			-31.197			-3.900
34305.000			-31.192			-3.899
34403.000			-31.189			-3.899
34504.000			-31.185			-3.898
34605.000			-31.184			-3.898
34704.000			-31.182			-3.898
34804.000			-31.179			-3.897
34905.000			-31.176			-3.897
35004.000			-31.174			-3.897
35103.000			-31.169			-3.896
35205.000			-31.166			-3.896
35304.000			-31.163			-3.895
35404.000			-31.160			-3.895
35505.000			-31.158			-3.895
35604.000			-31.156			-3.894
35704.000			-31.153			-3.894
35803.000			-31.149			-3.894
35904.000			-31.145			-3.893
36005.000			-31.142			-3.893
36104.000			-31.140			-3.893
36204.000			-31.138			-3.892
36304.000			-31.135			-3.892
36404.000			-31.133			-3.892
36503.000			-31.128			-3.891
36605.000			-31.125			-3.891
36704.000			-31.123			-3.890
36804.000			-31.120			-3.890
36905.000			-31.118			-3.890
37003.000			-31.116			-3.890
37104.000			-31.113			-3.889
37205.000			-31.109			-3.889
37304.000			-31.108			-3.888
37404.000			-31.105			-3.888
37505.000			-31.102			-3.888
37604.000			-31.100			-3.887
37703.000			-31.097			-3.887
37805.000			-31.095			-3.887
37904.000			-31.093			-3.887
38004.000			-31.088			-3.886
38105.000			-31.085			-3.886
38204.000			-31.082			-3.885
38304.000			-31.080			-3.885
38404.000			-31.077			-3.885
38504.000			-31.076			-3.884
38604.000			-31.075			-3.884
38705.000			-31.069			-3.884
38804.000			-31.067			-3.883
38904.000			-31.065			-3.883
39005.000			-31.063			-3.883
39103.000			-31.060			-3.882
39205.000			-31.057			-3.882
39304.000			-31.055			-3.882
39404.000			-31.051			-3.881
39505.000			-31.049			-3.881
39604.000			-31.047			-3.881
39704.000			-31.045			-3.881
39804.000			-31.041			-3.880
39904.000			-31.038			-3.880
40004.000			-31.037			-3.880
40105.000			-31.032			-3.879
40204.000			-31.029			-3.879
40303.000			-31.028			-3.878
40405.000			-31.026			-3.878
40504.000			-31.024			-3.878
40604.000			-31.021			-3.878
40705.000			-31.019			-3.877
40804.000			-31.017			-3.877
40904.000			-31.013			-3.877
41004.000			-31.010			-3.876
41104.000			-31.008			-3.876
41204.000			-31.007			-3.876
41305.000			-31.005			-3.876
41404.000			-31.002			-3.875
41504.000			-31.000			-3.875
41605.000			-30.996			-3.874
41703.000			-30.993			-3.874
41804.000			-30.990			-3.874
41905.000			-30.988			-3.874
42004.000			-30.987			-3.873
42104.000			-30.984			-3.873
42204.000			-30.983			-3.873
42304.000			-30.979			-3.872
42404.000			-30.976			-3.872
42504.000			-30.973			-3.872
42604.000			-30.971			-3.871
42705.000			-30.969			-3.871
42804.000			-30.967			-3.871
42904.000			-30.965			-3.871
43005.000			-30.961			-3.870
43104.000			-30.960			-3.870
43204.000			-30.957			-3.870
43305.000			-30.956			-3.869
43404.000			-30.954			-3.869
43504.000			-30.950			-3.869
43604.000			-30.949			-3.869
43704.000			-30.947			-3.868
43803.000			-30.943			-3.868
43905.000			-30.939			-3.867
44004.000			-30.937			-3.867
44104.000			-30.936			-3.867
44205.000			-30.935			-3.867
44303.000			-30.933			-3.867
44404.000			-30.931			-3.866
44505.000			-30.928			-3.866
44604.000			-30.925			-3.866
44704.000			-30.923			-3.865
44805.000			-30.920			-3.865
44904.000			-30.918			-3.865
45003.000			-30.916			-3.865
45105.000			-30.914			-3.864
45204.000			-30.911			-3.864
45304.000			-30.908			-3.863
45405.000			-30.906			-3.863
45504.000			-30.905			-3.863
45605.000			-30.903			-3.863
45703.000			-30.900			-3.863
45804.000			-30.898			-3.862
45905.000			-30.895			-3.862
46004.000			-30.892			-3.862
46104.000			-30.891			-3.861
46205.000			-30.888			-3.861
46304.000			-30.886			-3.861
46403.000			-30.885			-3.861
46505.000			-30.883			-3.860
46604.000			-30.882			-3.860
46704.000			-30.877			-3.860
46805.000			-30.875			-3.859
46904.000			-30.873			-3.859
47004.000			-30.872			-3.859
47104.000			-30.869			-3.859
47204.000			-30.868			-3.858
47304.000			-30.866			-3.858
47405.000			-30.862			-3.858
47504.000			-30.860			-3.858
47604.000			-30.858			-3.857
47705.000			-30.856			-3.857
47803.000			-30.853			-3.857
47904.000			-30.852			-3.856
48005.000			-30.850			-3.856
48104.000			-30.848			-3.856
48204.000			-30.846			-3.856
48305.000			-30.843			-3.855
48404.000			-30.840			-3.855
48503.000			-30.838			-3.855
48605.000			-30.836			-3.855
48704.000			-30.836			-3.854
48805.000			-30.833			-3.854
48904.000			-30.830			-3.854
49004.000			-30.827			-3.853
49105.000			-30.826			-3.853
49203.000			-30.824			-3.853
49304.000			-30.822			-3.853
49405.000			-30.820			-3.853
49504.000			-30.818			-3.852
49604.000			-30.816			-3.852
49705.000			-30.813			-3.852
49804.000			-30.811			-3.851
49903.000			-30.808			-3.851
50005.000			-30.807			-3.851
50104.000			-30.806			-3.851
50204.000			-30.804			-3.851
50305.000			-30.800			-3.850
50403.000			-30.798			-3.850
50504.000			-30.796			-3.849
50604.000			-30.794			-3.849
50704.000			-30.793			-3.849
50804.000			-30.791			-3.849
50905.000			-30.788			-3.849
51004.000			-30.785			-3.848
51103.000			-30.784			-3.848
51205.000			-30.783			-3.848
51304.000			-30.781			-3.848
51404.000			-30.778			-3.847
51505.000			-30.777			-3.847
51604.000			-30.776			-3.847
51704.000			-30.772			-3.846
51803.000			-30.770			-3.846
51904.000			-30.768			-3.846
52005.000			-30.766			-3.846
52104.000			-30.764			-3.846
52204.000			-30.762			-3.845
52305.000			-30.761			-3.845
52404.000			-30.758			-3.845
52503.000			-30.755			-3.844
52605.000			-30.754			-3.844
52704.000			-30.752			-3.844
52804.000			-30.750			-3.844
52905.000			-30.748			-3.843
53004.000			-30.746			-3.843
53104.000			-30.744			-3.843
53204.000			-30.742			-3.843
53304.000			-30.740			-3.843
53404.000			-30.738			-3.842
53505.000			-30.737			-3.842
53604.000			-30.735			-3.842
53704.000			-30.733			-3.842
53805.000			-30.732			-3.841
53903.000			-30.728			-3.841
54004.000			-30.727			-3.841
54105.000			-30.726			-3.841
54204.000			-30.724			-3.841
54304.000			-30.722			-3.840
54404.000			-30.720			-3.840
54504.000			-30.719			-3.840
54604.000			-30.716			-3.840
54705.000			-30.715			-3.839
54804.000			-30.712			-3.839
54904.000			-30.711			-3.839
55005.000			-30.710			-3.839
55103.000			-30.709			-3.839
55205.000			-30.706			-3.838
55304.000			-30.704			-3.838
55404.000			-30.702			-3.838
55505.000			-30.700			-3.838
55604.000			-30.699			-3.837
55704.000			-30.697			-3.837
55804.000			-30.696			-3.837
55904.000			-30.695			-3.837
56004.000			-30.692			-3.837
56105.000			-30.689			-3.836
56204.000			-30.687			-3.836
56304.000			-30.686			-3.836
56405.000			-30.684			-3.836
56503.000			-30.683			-3.835
56604.000			-30.682			-3.835
56705.000			-30.681			-3.835
56804.000			-30.677			-3.835
56904.000			-30.676			-3.834
57005.000			-30.674			-3.834
57104.000			-30.673			-3.834
57203.000			-30.672			-3.834
57305.000			-30.670			-3.834
57404.000			-30.668			-3.833
57504.000			-30.665			-3.833
57605.000			-30.664			-3.833
57704.000			-30.662			-3.833
57804.000			-30.661			-3.833
57904.000			-30.659			-3.832
58004.000			-30.658			-3.832
58104.000			-30.657			-3.832
58204.000			-30.655			-3.832
58304.000			-30.651			-3.831
58405.000			-30.650			-3.831
58504.000			-30.648			-3.831
58603.000			-30.646			-3.831
58705.000			-30.645			-3.831
58804.000			-30.644			-3.831
58904.000			-30.643			-3.830
59005.000			-30.640			-3.830
59104.000			-30.638			-3.830
59204.000			-30.637			-3.830
59304.000			-30.636			-3.829
59404.000			-30.635			-3.829
59504.000			-30.633			-3.829
59605.000			-30.631			-3.829
59704.000			-30.627			-3.828
59804.000			-30.626			-3.828
59905.000			-30.625			-3.828
60003.000			-30.622			-3.828
60104.000			-30.620			-3.828
60205.000			-30.619			-3.827
60304.000			-30.618			-3.827
60404.000			-30.615			-3.827
60504.000			-30.613			-3.827
60604.000			-30.612			-3.826
60704.000			-30.610			-3.826
60805.000			-30.608			-3.826
60904.000			-30.606			-3.826
61004.000			-30.605			-3.826
61105.000			-30.604			-3.825
61203.000			-30.601			-3.825
61304.000			-30.600			-3.825
61405.000			-30.599			-3.825
61504.000			-30.598			-3.825
61605.000			-30.597			-3.825
61704.000			-30.595			-3.824
61804.000			-30.594			-3.824
61904.000			-30.591			-3.824
62004.000			-30.591			-3.824
62104.000			-30.590			-3.824
62205.000			-30.588			-3.823
62304.000			-30.585			-3.823
62404.000			-30.584			-3.823
62505.000			-30.582			-3.823
62603.000			-30.580			-3.822
62704.000			-30.579			-3.822
62805.000			-30.578			-3.822
62904.000			-30.575			-3.822
63004.000			-30.573			-3.822
63104.000			-30.573			-3.822
63204.000			-30.572			-3.821
63303.000			-30.568			-3.821
63405.000			-30.568			-3.821
63504.000			-30.566			-3.821
63604.000			-30.565			-3.821
63705.000			-30.565			-3.821
63804.000			-30.563			-3.820
63904.000			-30.561			-3.820
64004.000			-30.560			-3.820
64104.000			-30.558			-3.820
64204.000			-30.556			-3.819
64305.000			-30.555			-3.819
64404.000			-30.553			-3.819
64503.000			-30.552			-3.819
64605.000			-30.550			-3.819
64704.000			-30.549			-3.819
64805.000			-30.546			-3.818
64904.000			-30.543			-3.818
65004.000			-30.542			-3.818
65105.000			-30.542			-3.818
65204.000			-30.540			-3.818
65304.000			-30.538			-3.817
65404.000			-30.538			-3.817
65504.000			-30.535			-3.817
65604.000			-30.533			-3.817
65705.000			-30.532			-3.817
65804.000			-30.530			-3.816
65903.000			-30.530			-3.816
66005.000			-30.528			-3.816
66104.000			-30.526			-3.816
66204.000			-30.524			-3.816
66305.000			-30.522			-3.815
66404.000			-30.522			-3.815
66504.000			-30.520			-3.815
66604.000			-30.520			-3.815
66704.000			-30.519			-3.815
66804.000			-30.516			-3.815
66905.000			-30.515			-3.814
67004.000			-30.513			-3.814
67104.000			-30.510			-3.814
67205.000			-30.508			-3.814
67303.000			-30.508			-3.814
67404.000			-30.507			-3.813
67505.000			-30.506			-3.813
67604.000			-30.504			-3.813
67704.000			-30.501			-3.813
67804.000			-30.499			-3.812
67904.000			-30.498			-3.812
68004.000			-30.497			-3.812
68104.000			-30.496			-3.812
68204.000			-30.495			-3.812
68305.000			-30.493			-3.812
68404.000			-30.492			-3.811
68504.000			-30.491			-3.811
68605.000			-30.488			-3.811
68703.000			-30.487			-3.811
68804.000			-30.486			-3.811
