# Acquired on 19/12/2023 17:01:16 
# SPIDER: Creep_1mm_0771453C
# CREEP MEASUREMENT

# time [ms]		force [N]		stiffness [N/mm]
0.000			-2.305			-2.305
100.000			-3.423			-3.423
200.000			-3.855			-3.855
302.000			-3.910			-3.910
401.000			-3.899			-3.899
500.000			-3.889			-3.889
601.000			-3.882			-3.882
700.000			-3.876			-3.876
800.000			-3.866			-3.866
901.000			-3.861			-3.861
1001.000			-3.859			-3.859
1101.000			-3.855			-3.855
1201.000			-3.851			-3.851
1300.000			-3.849			-3.849
1400.000			-3.848			-3.848
1501.000			-3.841			-3.841
1600.000			-3.840			-3.840
1700.000			-3.838			-3.838
1802.000			-3.835			-3.835
1901.000			-3.833			-3.833
2000.000			-3.832			-3.832
2101.000			-3.829			-3.829
2200.000			-3.827			-3.827
2300.000			-3.824			-3.824
2401.000			-3.822			-3.822
2501.000			-3.821			-3.821
2601.000			-3.820			-3.820
2701.000			-3.818			-3.818
2800.000			-3.817			-3.817
2900.000			-3.817			-3.817
3000.000			-3.814			-3.814
3100.000			-3.812			-3.812
3201.000			-3.811			-3.811
3301.000			-3.810			-3.810
3401.000			-3.808			-3.808
3501.000			-3.807			-3.807
3600.000			-3.806			-3.806
3700.000			-3.805			-3.805
3801.000			-3.804			-3.804
3900.000			-3.803			-3.803
4000.000			-3.802			-3.802
4102.000			-3.801			-3.801
4200.000			-3.799			-3.799
4300.000			-3.799			-3.799
4401.000			-3.798			-3.798
4500.000			-3.797			-3.797
4600.000			-3.796			-3.796
4701.000			-3.795			-3.795
4801.000			-3.794			-3.794
4901.000			-3.794			-3.794
5001.000			-3.793			-3.793
5100.000			-3.792			-3.792
5200.000			-3.790			-3.790
5301.000			-3.790			-3.790
5400.000			-3.788			-3.788
5500.000			-3.788			-3.788
5602.000			-3.788			-3.788
5701.000			-3.786			-3.786
5800.000			-3.786			-3.786
5901.000			-3.784			-3.784
6000.000			-3.784			-3.784
6100.000			-3.784			-3.784
6200.000			-3.783			-3.783
6300.000			-3.783			-3.783
6402.000			-3.781			-3.781
6501.000			-3.780			-3.780
6600.000			-3.781			-3.781
6701.000			-3.781			-3.781
6800.000			-3.779			-3.779
6900.000			-3.778			-3.778
7001.000			-3.778			-3.778
7100.000			-3.777			-3.777
7201.000			-3.776			-3.776
7302.000			-3.775			-3.775
7400.000			-3.775			-3.775
7500.000			-3.775			-3.775
7601.000			-3.775			-3.775
7700.000			-3.774			-3.774
7800.000			-3.774			-3.774
7901.000			-3.774			-3.774
8001.000			-3.773			-3.773
8101.000			-3.770			-3.770
8201.000			-3.770			-3.770
8300.000			-3.770			-3.770
8400.000			-3.770			-3.770
8501.000			-3.770			-3.770
8600.000			-3.769			-3.769
8701.000			-3.768			-3.768
8802.000			-3.767			-3.767
8900.000			-3.767			-3.767
9000.000			-3.767			-3.767
9101.000			-3.766			-3.766
9200.000			-3.766			-3.766
9300.000			-3.766			-3.766
9400.000			-3.765			-3.765
9501.000			-3.765			-3.765
9602.000			-3.763			-3.763
9700.000			-3.763			-3.763
9800.000			-3.763			-3.763
9901.000			-3.763			-3.763
10000.000			-3.762			-3.762
10100.000			-3.763			-3.763
10201.000			-3.762			-3.762
10301.000			-3.761			-3.761
10401.000			-3.760			-3.760
10501.000			-3.759			-3.759
10600.000			-3.759			-3.759
10700.000			-3.759			-3.759
10801.000			-3.757			-3.757
10900.000			-3.758			-3.758
11000.000			-3.758			-3.758
11102.000			-3.757			-3.757
11201.000			-3.757			-3.757
11300.000			-3.756			-3.756
11401.000			-3.756			-3.756
11500.000			-3.756			-3.756
11600.000			-3.755			-3.755
11701.000			-3.755			-3.755
11800.000			-3.754			-3.754
11901.000			-3.754			-3.754
12002.000			-3.753			-3.753
12100.000			-3.752			-3.752
12200.000			-3.753			-3.753
12301.000			-3.753			-3.753
12400.000			-3.752			-3.752
12500.000			-3.752			-3.752
12602.000			-3.752			-3.752
12701.000			-3.752			-3.752
12802.000			-3.752			-3.752
12900.000			-3.750			-3.750
13000.000			-3.750			-3.750
13101.000			-3.750			-3.750
13200.000			-3.748			-3.748
13300.000			-3.748			-3.748
13402.000			-3.748			-3.748
13501.000			-3.748			-3.748
13601.000			-3.747			-3.747
13701.000			-3.747			-3.747
13800.000			-3.748			-3.748
13900.000			-3.746			-3.746
14001.000			-3.746			-3.746
14100.000			-3.746			-3.746
14200.000			-3.747			-3.747
14302.000			-3.746			-3.746
14401.000			-3.745			-3.745
14500.000			-3.745			-3.745
14601.000			-3.745			-3.745
14700.000			-3.744			-3.744
14800.000			-3.743			-3.743
14901.000			-3.742			-3.742
15000.000			-3.742			-3.742
15101.000			-3.743			-3.743
15202.000			-3.743			-3.743
15300.000			-3.742			-3.742
15400.000			-3.741			-3.741
15501.000			-3.741			-3.741
15600.000			-3.740			-3.740
15700.000			-3.741			-3.741
15802.000			-3.741			-3.741
15901.000			-3.740			-3.740
16002.000			-3.740			-3.740
16100.000			-3.740			-3.740
16200.000			-3.739			-3.739
16301.000			-3.739			-3.739
16400.000			-3.739			-3.739
16500.000			-3.739			-3.739
16601.000			-3.739			-3.739
16701.000			-3.738			-3.738
16801.000			-3.738			-3.738
16901.000			-3.737			-3.737
17000.000			-3.738			-3.738
17100.000			-3.738			-3.738
17201.000			-3.736			-3.736
17300.000			-3.737			-3.737
17400.000			-3.738			-3.738
17502.000			-3.737			-3.737
17601.000			-3.736			-3.736
17700.000			-3.736			-3.736
17801.000			-3.736			-3.736
17900.000			-3.736			-3.736
18000.000			-3.736			-3.736
18101.000			-3.736			-3.736
18200.000			-3.735			-3.735
18301.000			-3.734			-3.734
18402.000			-3.735			-3.735
18500.000			-3.735			-3.735
18600.000			-3.734			-3.734
18701.000			-3.733			-3.733
18800.000			-3.733			-3.733
18900.000			-3.734			-3.734
19000.000			-3.733			-3.733
19101.000			-3.733			-3.733
19202.000			-3.733			-3.733
19300.000			-3.733			-3.733
19400.000			-3.734			-3.734
19501.000			-3.733			-3.733
19600.000			-3.733			-3.733
19700.000			-3.732			-3.732
19801.000			-3.731			-3.731
19901.000			-3.731			-3.731
20001.000			-3.730			-3.730
20101.000			-3.731			-3.731
20200.000			-3.731			-3.731
20300.000			-3.731			-3.731
20401.000			-3.730			-3.730
20500.000			-3.730			-3.730
20600.000			-3.730			-3.730
20702.000			-3.730			-3.730
20801.000			-3.729			-3.729
20900.000			-3.730			-3.730
21001.000			-3.730			-3.730
21100.000			-3.730			-3.730
21200.000			-3.730			-3.730
21301.000			-3.731			-3.731
21401.000			-3.730			-3.730
21501.000			-3.730			-3.730
21601.000			-3.728			-3.728
21700.000			-3.728			-3.728
21800.000			-3.728			-3.728
21901.000			-3.728			-3.728
22000.000			-3.728			-3.728
22100.000			-3.728			-3.728
22202.000			-3.729			-3.729
22301.000			-3.729			-3.729
22401.000			-3.728			-3.728
22500.000			-3.728			-3.728
22600.000			-3.728			-3.728
22701.000			-3.728			-3.728
22800.000			-3.727			-3.727
22900.000			-3.727			-3.727
23002.000			-3.727			-3.727
23101.000			-3.727			-3.727
23200.000			-3.726			-3.726
23301.000			-3.726			-3.726
23400.000			-3.725			-3.725
23500.000			-3.726			-3.726
23601.000			-3.726			-3.726
23700.000			-3.726			-3.726
23801.000			-3.726			-3.726
23902.000			-3.725			-3.725
24000.000			-3.725			-3.725
24100.000			-3.726			-3.726
24201.000			-3.725			-3.725
24300.000			-3.724			-3.724
24400.000			-3.724			-3.724
24502.000			-3.724			-3.724
24601.000			-3.723			-3.723
24700.000			-3.723			-3.723
24801.000			-3.723			-3.723
24900.000			-3.723			-3.723
25000.000			-3.723			-3.723
25101.000			-3.723			-3.723
25200.000			-3.723			-3.723
25302.000			-3.722			-3.722
25401.000			-3.722			-3.722
25500.000			-3.721			-3.721
25601.000			-3.722			-3.722
25700.000			-3.721			-3.721
25800.000			-3.721			-3.721
25901.000			-3.721			-3.721
26000.000			-3.721			-3.721
26101.000			-3.720			-3.720
26202.000			-3.721			-3.721
26300.000			-3.721			-3.721
26400.000			-3.719			-3.719
26501.000			-3.720			-3.720
26600.000			-3.720			-3.720
26700.000			-3.720			-3.720
26801.000			-3.720			-3.720
26901.000			-3.720			-3.720
27001.000			-3.720			-3.720
27101.000			-3.720			-3.720
27200.000			-3.719			-3.719
27300.000			-3.718			-3.718
27401.000			-3.719			-3.719
27500.000			-3.720			-3.720
27600.000			-3.718			-3.718
27702.000			-3.718			-3.718
27801.000			-3.719			-3.719
27900.000			-3.717			-3.717
28001.000			-3.717			-3.717
28100.000			-3.718			-3.718
28200.000			-3.718			-3.718
28301.000			-3.718			-3.718
28400.000			-3.718			-3.718
28502.000			-3.718			-3.718
28601.000			-3.716			-3.716
28700.000			-3.716			-3.716
28801.000			-3.716			-3.716
28900.000			-3.717			-3.717
29000.000			-3.717			-3.717
29101.000			-3.717			-3.717
29200.000			-3.716			-3.716
29301.000			-3.714			-3.714
29402.000			-3.715			-3.715
29500.000			-3.716			-3.716
29600.000			-3.716			-3.716
29701.000			-3.715			-3.715
29800.000			-3.714			-3.714
29900.000			-3.713			-3.713
30001.000			-3.713			-3.713
30101.000			-3.713			-3.713
30201.000			-3.712			-3.712
30301.000			-3.712			-3.712
30400.000			-3.712			-3.712
30500.000			-3.713			-3.713
30601.000			-3.713			-3.713
30700.000			-3.712			-3.712
30800.000			-3.712			-3.712
30902.000			-3.711			-3.711
31001.000			-3.711			-3.711
31100.000			-3.712			-3.712
31201.000			-3.711			-3.711
31300.000			-3.710			-3.710
31400.000			-3.711			-3.711
31501.000			-3.711			-3.711
31601.000			-3.710			-3.710
31702.000			-3.711			-3.711
31800.000			-3.710			-3.710
31900.000			-3.710			-3.710
32001.000			-3.710			-3.710
32100.000			-3.709			-3.709
32200.000			-3.710			-3.710
32301.000			-3.709			-3.709
32401.000			-3.709			-3.709
32501.000			-3.710			-3.710
32601.000			-3.709			-3.709
32700.000			-3.708			-3.708
32800.000			-3.708			-3.708
32901.000			-3.709			-3.709
33000.000			-3.708			-3.708
33100.000			-3.708			-3.708
33202.000			-3.708			-3.708
33301.000			-3.708			-3.708
33400.000			-3.709			-3.709
33501.000			-3.709			-3.709
33600.000			-3.709			-3.709
33700.000			-3.708			-3.708
33801.000			-3.708			-3.708
33900.000			-3.708			-3.708
34001.000			-3.708			-3.708
34102.000			-3.707			-3.707
34200.000			-3.706			-3.706
34300.000			-3.707			-3.707
34401.000			-3.706			-3.706
34500.000			-3.707			-3.707
34600.000			-3.707			-3.707
34701.000			-3.706			-3.706
34801.000			-3.706			-3.706
34902.000			-3.705			-3.705
35000.000			-3.705			-3.705
35100.000			-3.705			-3.705
35201.000			-3.705			-3.705
35300.000			-3.705			-3.705
35400.000			-3.705			-3.705
35502.000			-3.706			-3.706
35601.000			-3.706			-3.706
35701.000			-3.705			-3.705
35801.000			-3.705			-3.705
35900.000			-3.705			-3.705
36000.000			-3.704			-3.704
36101.000			-3.703			-3.703
36200.000			-3.703			-3.703
36301.000			-3.704			-3.704
36402.000			-3.703			-3.703
36500.000			-3.703			-3.703
36600.000			-3.704			-3.704
36701.000			-3.703			-3.703
36800.000			-3.703			-3.703
36900.000			-3.703			-3.703
37001.000			-3.703			-3.703
37101.000			-3.703			-3.703
37201.000			-3.702			-3.702
37301.000			-3.703			-3.703
37400.000			-3.702			-3.702
37500.000			-3.702			-3.702
37601.000			-3.702			-3.702
37700.000			-3.703			-3.703
37800.000			-3.701			-3.701
37902.000			-3.701			-3.701
38001.000			-3.702			-3.702
38100.000			-3.701			-3.701
38200.000			-3.701			-3.701
38300.000			-3.701			-3.701
38401.000			-3.702			-3.702
38500.000			-3.702			-3.702
38600.000			-3.701			-3.701
38702.000			-3.700			-3.700
38801.000			-3.701			-3.701
38900.000			-3.701			-3.701
39001.000			-3.701			-3.701
39100.000			-3.701			-3.701
39200.000			-3.700			-3.700
39301.000			-3.700			-3.700
39401.000			-3.700			-3.700
39501.000			-3.700			-3.700
39601.000			-3.700			-3.700
39700.000			-3.700			-3.700
39800.000			-3.701			-3.701
39901.000			-3.700			-3.700
40000.000			-3.700			-3.700
40100.000			-3.700			-3.700
40201.000			-3.699			-3.699
40301.000			-3.699			-3.699
40401.000			-3.699			-3.699
40501.000			-3.700			-3.700
40600.000			-3.699			-3.699
40700.000			-3.699			-3.699
40801.000			-3.698			-3.698
40900.000			-3.698			-3.698
41000.000			-3.699			-3.699
41102.000			-3.698			-3.698
41201.000			-3.698			-3.698
41300.000			-3.699			-3.699
41400.000			-3.699			-3.699
41500.000			-3.698			-3.698
41601.000			-3.697			-3.697
41700.000			-3.697			-3.697
41800.000			-3.697			-3.697
41902.000			-3.698			-3.698
42001.000			-3.697			-3.697
42100.000			-3.698			-3.698
42201.000			-3.697			-3.697
42300.000			-3.697			-3.697
42400.000			-3.697			-3.697
42501.000			-3.697			-3.697
42600.000			-3.697			-3.697
42701.000			-3.696			-3.696
42802.000			-3.697			-3.697
42900.000			-3.696			-3.696
43000.000			-3.696			-3.696
43101.000			-3.696			-3.696
43200.000			-3.695			-3.695
43300.000			-3.696			-3.696
43401.000			-3.695			-3.695
43501.000			-3.695			-3.695
43601.000			-3.695			-3.695
43701.000			-3.695			-3.695
43800.000			-3.696			-3.696
43900.000			-3.696			-3.696
44001.000			-3.695			-3.695
44100.000			-3.694			-3.694
44200.000			-3.694			-3.694
44302.000			-3.694			-3.694
44401.000			-3.694			-3.694
44500.000			-3.694			-3.694
44600.000			-3.694			-3.694
44700.000			-3.695			-3.695
44801.000			-3.693			-3.693
44900.000			-3.694			-3.694
45000.000			-3.694			-3.694
45102.000			-3.694			-3.694
45201.000			-3.694			-3.694
45300.000			-3.694			-3.694
45401.000			-3.694			-3.694
45500.000			-3.693			-3.693
45600.000			-3.693			-3.693
45701.000			-3.694			-3.694
45800.000			-3.694			-3.694
45901.000			-3.693			-3.693
46002.000			-3.692			-3.692
46100.000			-3.692			-3.692
46200.000			-3.692			-3.692
46301.000			-3.692			-3.692
46400.000			-3.692			-3.692
46500.000			-3.693			-3.693
46601.000			-3.692			-3.692
46701.000			-3.691			-3.691
46801.000			-3.692			-3.692
46901.000			-3.692			-3.692
47000.000			-3.691			-3.691
47100.000			-3.691			-3.691
47201.000			-3.691			-3.691
47300.000			-3.691			-3.691
47400.000			-3.691			-3.691
47502.000			-3.692			-3.692
47601.000			-3.691			-3.691
47700.000			-3.691			-3.691
47800.000			-3.690			-3.690
47900.000			-3.690			-3.690
48001.000			-3.690			-3.690
48100.000			-3.691			-3.691
48200.000			-3.691			-3.691
48302.000			-3.690			-3.690
48401.000			-3.690			-3.690
48500.000			-3.690			-3.690
48601.000			-3.690			-3.690
48700.000			-3.691			-3.691
48800.000			-3.689			-3.689
48901.000			-3.689			-3.689
49000.000			-3.689			-3.689
49100.000			-3.690			-3.690
49202.000			-3.690			-3.690
49301.000			-3.690			-3.690
49400.000			-3.689			-3.689
49501.000			-3.689			-3.689
49600.000			-3.690			-3.690
49700.000			-3.690			-3.690
49801.000			-3.689			-3.689
49900.000			-3.689			-3.689
50001.000			-3.688			-3.688
50102.000			-3.689			-3.689
50200.000			-3.689			-3.689
50300.000			-3.688			-3.688
50401.000			-3.688			-3.688
50500.000			-3.688			-3.688
50600.000			-3.688			-3.688
50701.000			-3.688			-3.688
50801.000			-3.688			-3.688
50902.000			-3.688			-3.688
51000.000			-3.688			-3.688
51100.000			-3.688			-3.688
51201.000			-3.687			-3.687
51300.000			-3.687			-3.687
51400.000			-3.687			-3.687
51501.000			-3.686			-3.686
51601.000			-3.686			-3.686
51701.000			-3.687			-3.687
51801.000			-3.686			-3.686
51900.000			-3.687			-3.687
52000.000			-3.687			-3.687
52101.000			-3.686			-3.686
52200.000			-3.685			-3.685
52300.000			-3.686			-3.686
52402.000			-3.685			-3.685
52501.000			-3.685			-3.685
52600.000			-3.684			-3.684
52701.000			-3.685			-3.685
52800.000			-3.686			-3.686
52900.000			-3.685			-3.685
53001.000			-3.685			-3.685
53100.000			-3.685			-3.685
53201.000			-3.685			-3.685
53302.000			-3.685			-3.685
53400.000			-3.684			-3.684
53500.000			-3.685			-3.685
53601.000			-3.684			-3.684
53700.000			-3.683			-3.683
53800.000			-3.683			-3.683
53901.000			-3.683			-3.683
54001.000			-3.683			-3.683
54102.000			-3.682			-3.682
54200.000			-3.683			-3.683
54300.000			-3.685			-3.685
54401.000			-3.684			-3.684
54500.000			-3.684			-3.684
54600.000			-3.684			-3.684
54701.000			-3.684			-3.684
54801.000			-3.683			-3.683
54901.000			-3.683			-3.683
55001.000			-3.683			-3.683
55100.000			-3.683			-3.683
55200.000			-3.683			-3.683
55301.000			-3.683			-3.683
55400.000			-3.682			-3.682
55500.000			-3.682			-3.682
55602.000			-3.683			-3.683
55701.000			-3.683			-3.683
55800.000			-3.683			-3.683
55901.000			-3.681			-3.681
56000.000			-3.682			-3.682
56100.000			-3.682			-3.682
56201.000			-3.682			-3.682
56300.000			-3.682			-3.682
56401.000			-3.682			-3.682
56502.000			-3.682			-3.682
56601.000			-3.682			-3.682
56700.000			-3.682			-3.682
56801.000			-3.682			-3.682
56900.000			-3.682			-3.682
57000.000			-3.681			-3.681
57101.000			-3.681			-3.681
57201.000			-3.682			-3.682
57302.000			-3.682			-3.682
57401.000			-3.681			-3.681
57500.000			-3.681			-3.681
57601.000			-3.681			-3.681
57700.000			-3.681			-3.681
57800.000			-3.682			-3.682
57901.000			-3.681			-3.681
58001.000			-3.681			-3.681
58101.000			-3.681			-3.681
58202.000			-3.681			-3.681
58300.000			-3.681			-3.681
58400.000			-3.680			-3.680
58501.000			-3.681			-3.681
58600.000			-3.680			-3.680
58700.000			-3.680			-3.680
58801.000			-3.680			-3.680
58901.000			-3.680			-3.680
59001.000			-3.680			-3.680
59101.000			-3.680			-3.680
59200.000			-3.680			-3.680
59300.000			-3.680			-3.680
59401.000			-3.678			-3.678
59500.000			-3.678			-3.678
59600.000			-3.679			-3.679
59702.000			-3.679			-3.679
59801.000			-3.679			-3.679
59900.000			-3.678			-3.678
60001.000			-3.678			-3.678
60100.000			-3.679			-3.679
60200.000			-3.679			-3.679
60301.000			-3.679			-3.679
60400.000			-3.679			-3.679
60502.000			-3.679			-3.679
60601.000			-3.678			-3.678
60700.000			-3.678			-3.678
60801.000			-3.678			-3.678
60900.000			-3.679			-3.679
61000.000			-3.679			-3.679
61101.000			-3.678			-3.678
61200.000			-3.678			-3.678
61301.000			-3.679			-3.679
61402.000			-3.679			-3.679
61500.000			-3.677			-3.677
61600.000			-3.678			-3.678
61701.000			-3.679			-3.679
61800.000			-3.678			-3.678
61900.000			-3.678			-3.678
62001.000			-3.678			-3.678
62101.000			-3.678			-3.678
62201.000			-3.678			-3.678
62301.000			-3.677			-3.677
62400.000			-3.677			-3.677
62500.000			-3.678			-3.678
62601.000			-3.679			-3.679
62700.000			-3.677			-3.677
62800.000			-3.676			-3.676
62902.000			-3.676			-3.676
63001.000			-3.676			-3.676
63101.000			-3.678			-3.678
63201.000			-3.677			-3.677
63300.000			-3.677			-3.677
63400.000			-3.676			-3.676
63501.000			-3.676			-3.676
63600.000			-3.676			-3.676
63700.000			-3.677			-3.677
63802.000			-3.675			-3.675
63901.000			-3.675			-3.675
64001.000			-3.676			-3.676
64100.000			-3.676			-3.676
64200.000			-3.675			-3.675
64301.000			-3.676			-3.676
64400.000			-3.677			-3.677
64500.000			-3.675			-3.675
64602.000			-3.675			-3.675
64701.000			-3.676			-3.676
64800.000			-3.675			-3.675
64901.000			-3.674			-3.674
65000.000			-3.674			-3.674
65100.000			-3.674			-3.674
65201.000			-3.675			-3.675
65300.000			-3.675			-3.675
65401.000			-3.674			-3.674
65502.000			-3.674			-3.674
65600.000			-3.674			-3.674
65700.000			-3.674			-3.674
65801.000			-3.673			-3.673
65900.000			-3.673			-3.673
66000.000			-3.674			-3.674
66101.000			-3.675			-3.675
66201.000			-3.674			-3.674
66301.000			-3.673			-3.673
66401.000			-3.674			-3.674
66500.000			-3.674			-3.674
66600.000			-3.675			-3.675
66701.000			-3.674			-3.674
66800.000			-3.673			-3.673
66900.000			-3.673			-3.673
67002.000			-3.673			-3.673
67101.000			-3.674			-3.674
67202.000			-3.674			-3.674
67300.000			-3.674			-3.674
67400.000			-3.674			-3.674
67501.000			-3.674			-3.674
67600.000			-3.673			-3.673
67700.000			-3.674			-3.674
67801.000			-3.673			-3.673
67901.000			-3.673			-3.673
68001.000			-3.673			-3.673
68101.000			-3.673			-3.673
68200.000			-3.673			-3.673
68300.000			-3.673			-3.673
68401.000			-3.673			-3.673
68500.000			-3.673			-3.673
68600.000			-3.673			-3.673
68702.000			-3.672			-3.672
68801.000			-3.672			-3.672
68900.000			-3.672			-3.672
69001.000			-3.673			-3.673
69100.000			-3.673			-3.673
69200.000			-3.672			-3.672
69301.000			-3.673			-3.673
69400.000			-3.673			-3.673
69501.000			-3.672			-3.672
69602.000			-3.671			-3.671
69701.000			-3.672			-3.672
69800.000			-3.672			-3.672
69901.000			-3.672			-3.672
70000.000			-3.672			-3.672
70100.000			-3.672			-3.672
70200.000			-3.673			-3.673
70300.000			-3.673			-3.673
70402.000			-3.672			-3.672
70501.000			-3.673			-3.673
70600.000			-3.673			-3.673
70701.000			-3.672			-3.672
70800.000			-3.672			-3.672
70900.000			-3.672			-3.672
71001.000			-3.672			-3.672
71100.000			-3.673			-3.673
71201.000			-3.672			-3.672
