# Acquired on 10/01/2024 11:55:10 
# SPIDER: Creep_-3mm_07714532B-1
# CREEP MEASUREMENT

# time [ms]		force [N]		stiffness [N/mm]
1.000			7.252			-2.417
100.000			8.032			-2.677
200.000			8.343			-2.781
301.000			8.368			-2.789
400.000			8.329			-2.776
500.000			8.298			-2.766
602.000			8.250			-2.750
701.000			8.231			-2.744
800.000			8.215			-2.738
901.000			8.201			-2.734
1000.000			8.189			-2.730
1100.000			8.177			-2.726
1201.000			8.166			-2.722
1301.000			8.146			-2.715
1401.000			8.137			-2.712
1501.000			8.129			-2.710
1600.000			8.121			-2.707
1700.000			8.114			-2.705
1801.000			8.107			-2.702
1900.000			8.101			-2.700
2000.000			8.090			-2.697
2102.000			8.084			-2.695
2201.000			8.079			-2.693
2300.000			8.073			-2.691
2401.000			8.068			-2.689
2500.000			8.063			-2.688
2600.000			8.059			-2.686
2700.000			8.053			-2.684
2801.000			8.046			-2.682
2902.000			8.042			-2.681
3001.000			8.037			-2.679
3100.000			8.034			-2.678
3201.000			8.031			-2.677
3300.000			8.027			-2.676
3400.000			8.023			-2.674
3501.000			8.016			-2.672
3601.000			8.013			-2.671
3701.000			8.010			-2.670
3801.000			8.007			-2.669
3900.000			8.004			-2.668
4000.000			8.001			-2.667
4101.000			7.999			-2.666
4200.000			7.993			-2.664
4301.000			7.991			-2.664
4402.000			7.988			-2.663
4500.000			7.986			-2.662
4600.000			7.983			-2.661
4701.000			7.980			-2.660
4800.000			7.979			-2.660
4900.000			7.974			-2.658
5001.000			7.971			-2.657
5101.000			7.969			-2.656
5201.000			7.967			-2.656
5301.000			7.966			-2.655
5400.000			7.962			-2.654
5500.000			7.960			-2.653
5601.000			7.958			-2.653
5700.000			7.954			-2.651
5800.000			7.952			-2.651
5902.000			7.951			-2.650
6001.000			7.949			-2.650
6101.000			7.945			-2.648
6200.000			7.944			-2.648
6300.000			7.942			-2.647
6401.000			7.938			-2.646
6500.000			7.938			-2.646
6600.000			7.935			-2.645
6702.000			7.933			-2.644
6801.000			7.932			-2.644
6900.000			7.930			-2.643
7001.000			7.927			-2.642
7100.000			7.925			-2.642
7200.000			7.923			-2.641
7301.000			7.921			-2.640
7400.000			7.920			-2.640
7501.000			7.919			-2.640
7602.000			7.917			-2.639
7700.000			7.916			-2.639
7800.000			7.913			-2.638
7901.000			7.912			-2.637
8000.000			7.910			-2.637
8100.000			7.908			-2.636
8201.000			7.906			-2.635
8301.000			7.904			-2.635
8401.000			7.904			-2.635
8501.000			7.904			-2.635
8600.000			7.901			-2.634
8700.000			7.900			-2.633
8801.000			7.899			-2.633
8900.000			7.898			-2.633
9000.000			7.897			-2.632
9102.000			7.895			-2.632
9201.000			7.894			-2.631
9301.000			7.892			-2.631
9400.000			7.891			-2.630
9500.000			7.889			-2.630
9601.000			7.888			-2.629
9700.000			7.887			-2.629
9800.000			7.886			-2.629
9902.000			7.885			-2.628
10001.000			7.883			-2.628
10100.000			7.882			-2.627
10201.000			7.881			-2.627
10300.000			7.880			-2.627
10400.000			7.880			-2.627
10501.000			7.879			-2.626
10600.000			7.878			-2.626
10701.000			7.877			-2.626
10802.000			7.874			-2.625
10900.000			7.874			-2.625
11000.000			7.873			-2.624
11101.000			7.871			-2.624
11200.000			7.870			-2.623
11300.000			7.869			-2.623
11401.000			7.869			-2.623
11501.000			7.867			-2.622
11601.000			7.865			-2.622
11701.000			7.865			-2.622
11800.000			7.865			-2.622
11900.000			7.862			-2.621
12001.000			7.861			-2.620
12100.000			7.862			-2.621
12200.000			7.859			-2.620
12302.000			7.858			-2.619
12401.000			7.858			-2.619
12501.000			7.856			-2.619
12600.000			7.857			-2.619
12700.000			7.856			-2.619
12801.000			7.854			-2.618
12900.000			7.853			-2.618
13000.000			7.851			-2.617
13102.000			7.850			-2.617
13201.000			7.849			-2.616
13300.000			7.848			-2.616
13401.000			7.848			-2.616
13500.000			7.846			-2.615
13600.000			7.846			-2.615
13701.000			7.844			-2.615
13800.000			7.843			-2.614
13901.000			7.843			-2.614
14002.000			7.843			-2.614
14100.000			7.843			-2.614
14200.000			7.841			-2.614
14301.000			7.839			-2.613
14400.000			7.837			-2.612
14500.000			7.836			-2.612
14601.000			7.836			-2.612
14701.000			7.836			-2.612
14801.000			7.836			-2.612
14901.000			7.834			-2.611
15000.000			7.833			-2.611
15100.000			7.832			-2.611
15201.000			7.831			-2.610
15300.000			7.830			-2.610
15400.000			7.830			-2.610
15502.000			7.829			-2.610
15601.000			7.829			-2.610
15701.000			7.828			-2.609
15800.000			7.827			-2.609
15900.000			7.826			-2.609
16001.000			7.825			-2.608
16100.000			7.824			-2.608
16200.000			7.824			-2.608
16301.000			7.822			-2.607
16401.000			7.822			-2.607
16501.000			7.822			-2.607
16601.000			7.820			-2.607
16700.000			7.819			-2.606
16800.000			7.818			-2.606
16901.000			7.818			-2.606
17000.000			7.818			-2.606
17100.000			7.817			-2.606
17202.000			7.816			-2.605
17301.000			7.816			-2.605
17400.000			7.815			-2.605
17501.000			7.814			-2.605
17600.000			7.814			-2.605
17700.000			7.813			-2.604
17801.000			7.813			-2.604
17900.000			7.813			-2.604
18001.000			7.812			-2.604
18102.000			7.810			-2.603
18200.000			7.809			-2.603
18300.000			7.809			-2.603
18401.000			7.809			-2.603
18500.000			7.807			-2.602
18600.000			7.807			-2.602
18700.000			7.807			-2.602
18801.000			7.807			-2.602
18902.000			7.806			-2.602
19000.000			7.804			-2.601
19100.000			7.804			-2.601
19201.000			7.803			-2.601
19300.000			7.803			-2.601
19400.000			7.802			-2.601
19501.000			7.801			-2.600
19601.000			7.801			-2.600
19701.000			7.801			-2.600
19801.000			7.800			-2.600
19900.000			7.799			-2.600
20000.000			7.799			-2.600
20101.000			7.798			-2.599
20200.000			7.798			-2.599
20300.000			7.797			-2.599
20402.000			7.796			-2.599
20501.000			7.796			-2.599
20601.000			7.795			-2.598
20701.000			7.795			-2.598
20800.000			7.795			-2.598
20900.000			7.794			-2.598
21001.000			7.793			-2.598
21100.000			7.792			-2.597
21200.000			7.791			-2.597
21302.000			7.791			-2.597
21401.000			7.789			-2.596
21500.000			7.789			-2.596
21601.000			7.789			-2.596
21700.000			7.789			-2.596
21800.000			7.789			-2.596
21900.000			7.788			-2.596
22000.000			7.788			-2.596
22102.000			7.788			-2.596
22201.000			7.786			-2.595
22300.000			7.785			-2.595
22401.000			7.785			-2.595
22500.000			7.784			-2.595
22600.000			7.783			-2.594
22701.000			7.782			-2.594
22800.000			7.783			-2.594
22901.000			7.783			-2.594
23002.000			7.783			-2.594
23100.000			7.783			-2.594
23200.000			7.780			-2.593
23301.000			7.779			-2.593
23400.000			7.779			-2.593
23500.000			7.779			-2.593
23601.000			7.779			-2.593
23701.000			7.778			-2.593
23801.000			7.778			-2.593
23902.000			7.777			-2.592
24000.000			7.776			-2.592
24100.000			7.776			-2.592
24201.000			7.776			-2.592
24300.000			7.775			-2.592
24400.000			7.775			-2.592
24501.000			7.774			-2.591
24601.000			7.773			-2.591
24701.000			7.773			-2.591
24801.000			7.771			-2.590
24900.000			7.771			-2.590
25000.000			7.772			-2.591
25100.000			7.772			-2.591
25200.000			7.772			-2.591
25301.000			7.771			-2.590
25401.000			7.770			-2.590
25501.000			7.768			-2.589
25601.000			7.769			-2.590
25700.000			7.769			-2.590
25800.000			7.769			-2.590
25901.000			7.767			-2.589
26000.000			7.767			-2.589
26100.000			7.767			-2.589
26202.000			7.766			-2.589
26301.000			7.765			-2.588
26400.000			7.764			-2.588
26501.000			7.764			-2.588
26600.000			7.765			-2.588
26700.000			7.764			-2.588
26801.000			7.764			-2.588
26900.000			7.763			-2.588
27001.000			7.763			-2.588
27102.000			7.763			-2.588
27201.000			7.762			-2.587
27300.000			7.761			-2.587
27401.000			7.761			-2.587
27500.000			7.761			-2.587
27600.000			7.761			-2.587
27701.000			7.759			-2.586
27800.000			7.759			-2.586
27901.000			7.759			-2.586
28002.000			7.759			-2.586
28100.000			7.758			-2.586
28200.000			7.758			-2.586
28300.000			7.757			-2.586
28400.000			7.756			-2.585
28501.000			7.756			-2.585
28600.000			7.756			-2.585
28701.000			7.755			-2.585
28802.000			7.755			-2.585
28900.000			7.756			-2.585
29000.000			7.755			-2.585
29101.000			7.754			-2.585
29200.000			7.753			-2.584
29300.000			7.753			-2.584
29401.000			7.752			-2.584
29501.000			7.753			-2.584
29601.000			7.753			-2.584
29701.000			7.751			-2.584
29800.000			7.750			-2.583
29900.000			7.751			-2.584
30001.000			7.750			-2.583
30100.000			7.750			-2.583
30200.000			7.751			-2.584
30302.000			7.750			-2.583
30401.000			7.750			-2.583
30500.000			7.749			-2.583
30601.000			7.748			-2.583
30700.000			7.748			-2.583
30800.000			7.747			-2.582
30901.000			7.746			-2.582
31000.000			7.746			-2.582
31101.000			7.746			-2.582
31202.000			7.745			-2.582
31300.000			7.745			-2.582
31400.000			7.746			-2.582
31500.000			7.744			-2.581
31600.000			7.744			-2.581
31701.000			7.744			-2.581
31800.000			7.743			-2.581
31901.000			7.743			-2.581
32002.000			7.743			-2.581
32100.000			7.741			-2.580
32200.000			7.742			-2.581
32301.000			7.742			-2.581
32400.000			7.741			-2.580
32500.000			7.740			-2.580
32601.000			7.741			-2.580
32701.000			7.741			-2.580
32801.000			7.740			-2.580
32901.000			7.739			-2.580
33000.000			7.739			-2.580
33100.000			7.739			-2.580
33201.000			7.738			-2.579
33300.000			7.738			-2.579
33400.000			7.736			-2.579
33502.000			7.735			-2.578
33601.000			7.735			-2.578
33700.000			7.736			-2.579
33801.000			7.736			-2.579
33900.000			7.736			-2.579
34000.000			7.736			-2.579
34101.000			7.735			-2.578
34200.000			7.735			-2.578
34301.000			7.735			-2.578
34402.000			7.734			-2.578
34500.000			7.733			-2.578
34600.000			7.733			-2.578
34700.000			7.733			-2.578
34800.000			7.731			-2.577
34901.000			7.732			-2.577
35000.000			7.732			-2.577
35101.000			7.731			-2.577
35202.000			7.730			-2.577
35300.000			7.731			-2.577
35400.000			7.731			-2.577
35501.000			7.730			-2.577
35600.000			7.728			-2.576
35700.000			7.728			-2.576
35801.000			7.729			-2.576
35901.000			7.729			-2.576
36001.000			7.728			-2.576
36101.000			7.727			-2.576
36200.000			7.727			-2.576
36300.000			7.726			-2.575
36401.000			7.727			-2.576
36500.000			7.727			-2.576
36600.000			7.726			-2.575
36702.000			7.725			-2.575
36801.000			7.724			-2.575
36900.000			7.724			-2.575
37001.000			7.724			-2.575
37100.000			7.724			-2.575
37200.000			7.723			-2.574
37301.000			7.723			-2.574
37400.000			7.722			-2.574
37501.000			7.722			-2.574
37602.000			7.722			-2.574
37700.000			7.721			-2.574
37800.000			7.721			-2.574
37900.000			7.721			-2.574
38000.000			7.722			-2.574
38101.000			7.721			-2.574
38200.000			7.721			-2.574
38301.000			7.720			-2.573
38402.000			7.719			-2.573
38500.000			7.719			-2.573
38600.000			7.719			-2.573
38701.000			7.718			-2.573
38800.000			7.717			-2.572
38900.000			7.718			-2.573
39001.000			7.718			-2.573
39101.000			7.716			-2.572
39201.000			7.717			-2.572
39301.000			7.717			-2.572
39400.000			7.717			-2.572
39500.000			7.716			-2.572
39601.000			7.716			-2.572
39700.000			7.716			-2.572
39800.000			7.714			-2.571
39902.000			7.715			-2.572
40001.000			7.715			-2.572
40100.000			7.714			-2.571
40201.000			7.714			-2.571
40300.000			7.713			-2.571
40400.000			7.714			-2.571
40501.000			7.713			-2.571
40600.000			7.712			-2.571
40701.000			7.712			-2.571
40802.000			7.713			-2.571
40900.000			7.712			-2.571
41000.000			7.713			-2.571
41100.000			7.712			-2.571
41200.000			7.711			-2.570
41301.000			7.712			-2.571
41400.000			7.710			-2.570
41501.000			7.710			-2.570
41602.000			7.710			-2.570
41700.000			7.709			-2.570
41800.000			7.709			-2.570
41901.000			7.709			-2.570
42000.000			7.709			-2.570
42100.000			7.709			-2.570
42201.000			7.709			-2.570
42301.000			7.709			-2.570
42401.000			7.708			-2.569
42501.000			7.707			-2.569
42600.000			7.707			-2.569
42700.000			7.707			-2.569
42801.000			7.706			-2.569
42900.000			7.706			-2.569
43000.000			7.706			-2.569
43102.000			7.707			-2.569
43201.000			7.706			-2.569
43300.000			7.706			-2.569
43401.000			7.706			-2.569
43500.000			7.706			-2.569
43600.000			7.705			-2.568
43701.000			7.704			-2.568
43800.000			7.705			-2.568
43901.000			7.706			-2.569
44002.000			7.706			-2.569
44100.000			7.705			-2.568
44200.000			7.703			-2.568
44300.000			7.703			-2.568
44400.000			7.704			-2.568
44501.000			7.704			-2.568
44600.000			7.703			-2.568
44701.000			7.702			-2.567
44802.000			7.702			-2.567
44900.000			7.703			-2.568
45000.000			7.702			-2.567
45101.000			7.703			-2.568
45200.000			7.701			-2.567
45300.000			7.701			-2.567
45401.000			7.701			-2.567
45501.000			7.701			-2.567
45601.000			7.700			-2.567
45701.000			7.701			-2.567
45800.000			7.701			-2.567
45900.000			7.700			-2.567
46001.000			7.699			-2.566
46100.000			7.699			-2.566
46200.000			7.700			-2.567
46302.000			7.700			-2.567
46401.000			7.699			-2.566
46500.000			7.699			-2.566
46601.000			7.699			-2.566
46700.000			7.698			-2.566
46800.000			7.698			-2.566
46901.000			7.697			-2.566
47000.000			7.697			-2.566
47101.000			7.698			-2.566
47202.000			7.697			-2.566
47300.000			7.697			-2.566
47400.000			7.697			-2.566
47500.000			7.696			-2.565
47600.000			7.696			-2.565
47701.000			7.696			-2.565
47800.000			7.696			-2.565
47900.000			7.695			-2.565
48002.000			7.695			-2.565
48101.000			7.695			-2.565
48200.000			7.695			-2.565
48301.000			7.694			-2.565
48400.000			7.695			-2.565
48500.000			7.696			-2.565
48601.000			7.694			-2.565
48700.000			7.694			-2.565
48801.000			7.694			-2.565
48902.000			7.693			-2.564
49001.000			7.691			-2.564
49100.000			7.692			-2.564
49201.000			7.691			-2.564
49300.000			7.690			-2.563
49400.000			7.690			-2.563
49501.000			7.690			-2.563
49601.000			7.690			-2.563
49701.000			7.690			-2.563
49802.000			7.689			-2.563
49900.000			7.690			-2.563
50000.000			7.690			-2.563
50101.000			7.689			-2.563
50200.000			7.689			-2.563
50300.000			7.688			-2.563
50401.000			7.687			-2.562
50501.000			7.687			-2.562
50602.000			7.686			-2.562
50700.000			7.687			-2.562
50800.000			7.687			-2.562
50901.000			7.685			-2.562
51000.000			7.686			-2.562
51100.000			7.686			-2.562
51201.000			7.685			-2.562
51301.000			7.685			-2.562
51401.000			7.685			-2.562
51501.000			7.685			-2.562
51600.000			7.684			-2.561
51700.000			7.684			-2.561
51801.000			7.684			-2.561
51900.000			7.684			-2.561
52000.000			7.682			-2.561
52101.000			7.681			-2.560
52201.000			7.682			-2.561
52301.000			7.682			-2.561
52401.000			7.683			-2.561
52500.000			7.682			-2.561
52600.000			7.680			-2.560
52701.000			7.681			-2.560
52800.000			7.683			-2.561
52900.000			7.682			-2.561
53002.000			7.680			-2.560
53101.000			7.681			-2.560
53200.000			7.681			-2.560
53301.000			7.681			-2.560
53400.000			7.681			-2.560
53500.000			7.681			-2.560
53601.000			7.681			-2.560
53701.000			7.680			-2.560
53802.000			7.680			-2.560
53901.000			7.681			-2.560
54000.000			7.681			-2.560
54101.000			7.680			-2.560
54200.000			7.680			-2.560
54300.000			7.681			-2.560
54401.000			7.678			-2.559
54500.000			7.678			-2.559
54601.000			7.678			-2.559
54702.000			7.679			-2.560
54800.000			7.679			-2.560
54900.000			7.678			-2.559
55001.000			7.678			-2.559
55100.000			7.677			-2.559
55200.000			7.678			-2.559
55301.000			7.677			-2.559
55401.000			7.676			-2.559
55501.000			7.677			-2.559
55601.000			7.677			-2.559
55700.000			7.677			-2.559
55800.000			7.677			-2.559
55901.000			7.676			-2.559
56000.000			7.676			-2.559
56100.000			7.678			-2.559
56202.000			7.678			-2.559
56301.000			7.677			-2.559
56400.000			7.676			-2.559
56501.000			7.676			-2.559
56600.000			7.676			-2.559
56700.000			7.675			-2.558
56801.000			7.675			-2.558
56900.000			7.675			-2.558
57000.000			7.675			-2.558
57102.000			7.675			-2.558
57201.000			7.675			-2.558
57301.000			7.675			-2.558
57400.000			7.674			-2.558
57500.000			7.674			-2.558
57601.000			7.674			-2.558
57700.000			7.673			-2.558
57800.000			7.671			-2.557
57902.000			7.673			-2.558
58001.000			7.674			-2.558
58100.000			7.672			-2.557
58201.000			7.672			-2.557
58300.000			7.672			-2.557
58400.000			7.672			-2.557
58501.000			7.672			-2.557
58600.000			7.671			-2.557
58701.000			7.671			-2.557
58802.000			7.670			-2.557
58900.000			7.671			-2.557
59000.000			7.672			-2.557
59101.000			7.671			-2.557
59200.000			7.670			-2.557
59300.000			7.669			-2.556
59401.000			7.669			-2.556
59501.000			7.669			-2.556
59601.000			7.669			-2.556
59701.000			7.669			-2.556
59800.000			7.668			-2.556
59900.000			7.670			-2.557
60001.000			7.669			-2.556
60100.000			7.668			-2.556
60200.000			7.668			-2.556
60300.000			7.668			-2.556
60401.000			7.667			-2.556
60502.000			7.666			-2.555
60600.000			7.667			-2.556
60700.000			7.668			-2.556
60801.000			7.667			-2.556
60900.000			7.665			-2.555
61000.000			7.664			-2.555
61101.000			7.664			-2.555
61201.000			7.665			-2.555
61301.000			7.666			-2.555
61401.000			7.665			-2.555
61500.000			7.665			-2.555
61600.000			7.664			-2.555
61701.000			7.664			-2.555
61800.000			7.664			-2.555
61900.000			7.664			-2.555
62002.000			7.664			-2.555
62101.000			7.664			-2.555
62200.000			7.664			-2.555
62301.000			7.663			-2.554
62400.000			7.662			-2.554
62500.000			7.664			-2.555
62601.000			7.663			-2.554
62700.000			7.663			-2.554
62801.000			7.663			-2.554
62902.000			7.662			-2.554
63000.000			7.662			-2.554
63100.000			7.662			-2.554
63201.000			7.662			-2.554
63300.000			7.662			-2.554
63400.000			7.661			-2.554
63500.000			7.661			-2.554
63601.000			7.661			-2.554
63702.000			7.660			-2.553
63800.000			7.660			-2.553
63900.000			7.660			-2.553
64001.000			7.660			-2.553
64100.000			7.660			-2.553
64200.000			7.660			-2.553
64301.000			7.660			-2.553
64401.000			7.659			-2.553
64501.000			7.659			-2.553
64601.000			7.659			-2.553
64700.000			7.658			-2.553
64800.000			7.658			-2.553
64901.000			7.658			-2.553
65000.000			7.657			-2.552
65100.000			7.657			-2.552
65202.000			7.657			-2.552
65301.000			7.657			-2.552
65400.000			7.657			-2.552
65501.000			7.657			-2.552
65600.000			7.657			-2.552
65700.000			7.656			-2.552
65801.000			7.656			-2.552
65900.000			7.656			-2.552
66000.000			7.657			-2.552
66102.000			7.656			-2.552
66201.000			7.656			-2.552
66300.000			7.656			-2.552
66401.000			7.655			-2.552
66500.000			7.655			-2.552
66600.000			7.655			-2.552
66700.000			7.655			-2.552
66800.000			7.656			-2.552
66902.000			7.654			-2.551
67001.000			7.654			-2.551
67100.000			7.654			-2.551
67201.000			7.654			-2.551
67300.000			7.653			-2.551
67400.000			7.653			-2.551
67501.000			7.654			-2.551
67600.000			7.653			-2.551
67700.000			7.653			-2.551
67802.000			7.652			-2.551
67901.000			7.652			-2.551
68000.000			7.652			-2.551
68101.000			7.652			-2.551
68200.000			7.652			-2.551
68300.000			7.651			-2.550
68401.000			7.651			-2.550
68500.000			7.651			-2.550
68601.000			7.651			-2.550
68702.000			7.651			-2.550
68800.000			7.651			-2.550
68900.000			7.650			-2.550
69001.000			7.650			-2.550
69100.000			7.650			-2.550
69200.000			7.651			-2.550
69301.000			7.650			-2.550
69401.000			7.649			-2.550
69501.000			7.649			-2.550
69601.000			7.649			-2.550
69700.000			7.649			-2.550
69800.000			7.649			-2.550
69900.000			7.649			-2.550
70000.000			7.648			-2.549
70101.000			7.648			-2.549
70200.000			7.648			-2.549
70301.000			7.648			-2.549
70402.000			7.648			-2.549
70500.000			7.648			-2.549
70600.000			7.648			-2.549
70701.000			7.647			-2.549
70800.000			7.648			-2.549
70900.000			7.647			-2.549
71001.000			7.647			-2.549
71101.000			7.646			-2.549
71201.000			7.646			-2.549
71301.000			7.646			-2.549
71400.000			7.645			-2.548
71500.000			7.646			-2.549
71601.000			7.645			-2.548
71700.000			7.645			-2.548
71800.000			7.646			-2.549
71902.000			7.647			-2.549
72001.000			7.645			-2.548
72100.000			7.645			-2.548
72201.000			7.646			-2.549
72300.000			7.646			-2.549
72400.000			7.645			-2.548
72501.000			7.643			-2.548
72600.000			7.644			-2.548
72701.000			7.644			-2.548
72802.000			7.644			-2.548
72901.000			7.643			-2.548
73000.000			7.643			-2.548
73100.000			7.643			-2.548
73200.000			7.643			-2.548
73301.000			7.644			-2.548
73400.000			7.644			-2.548
73500.000			7.643			-2.548
73602.000			7.643			-2.548
73701.000			7.643			-2.548
73800.000			7.644			-2.548
73901.000			7.643			-2.548
