# Acquired on 21/12/2023 13:57:04 
# SPIDER: Creep_9mm_0771453C
# CREEP MEASUREMENT

# time [ms]		force [N]		stiffness [N/mm]
1.000			-72.876			-8.097
100.000			-76.595			-8.511
200.000			-77.834			-8.648
300.000			-76.953			-8.550
401.000			-76.509			-8.501
500.000			-76.217			-8.469
600.000			-75.976			-8.442
702.000			-75.768			-8.419
801.000			-75.586			-8.398
900.000			-75.422			-8.380
1001.000			-75.141			-8.349
1100.000			-75.017			-8.335
1200.000			-74.903			-8.323
1301.000			-74.797			-8.311
1401.000			-74.694			-8.299
1501.000			-74.599			-8.289
1601.000			-74.510			-8.279
1700.000			-74.342			-8.260
1800.000			-74.264			-8.252
1901.000			-74.192			-8.244
2000.000			-74.124			-8.236
2100.000			-74.056			-8.228
2202.000			-73.992			-8.221
2301.000			-73.932			-8.215
2400.000			-73.816			-8.202
2501.000			-73.762			-8.196
2600.000			-73.709			-8.190
2700.000			-73.658			-8.184
2801.000			-73.608			-8.179
2900.000			-73.559			-8.173
3001.000			-73.513			-8.168
3102.000			-73.419			-8.158
3200.000			-73.377			-8.153
3300.000			-73.336			-8.148
3400.000			-73.294			-8.144
3500.000			-73.253			-8.139
3601.000			-73.214			-8.135
3701.000			-73.175			-8.131
3801.000			-73.138			-8.126
3901.000			-73.069			-8.119
4000.000			-73.033			-8.115
4100.000			-72.999			-8.111
4201.000			-72.966			-8.107
4300.000			-72.933			-8.104
4400.000			-72.901			-8.100
4502.000			-72.870			-8.097
4601.000			-72.808			-8.090
4700.000			-72.779			-8.087
4801.000			-72.750			-8.083
4900.000			-72.722			-8.080
5000.000			-72.693			-8.077
5101.000			-72.665			-8.074
5200.000			-72.639			-8.071
5301.000			-72.586			-8.065
5402.000			-72.559			-8.062
5500.000			-72.535			-8.059
5600.000			-72.509			-8.057
5701.000			-72.483			-8.054
5800.000			-72.458			-8.051
5900.000			-72.435			-8.048
6001.000			-72.412			-8.046
6101.000			-72.365			-8.041
6200.000			-72.343			-8.038
6301.000			-72.320			-8.036
6400.000			-72.299			-8.033
6500.000			-72.276			-8.031
6600.000			-72.253			-8.028
6700.000			-72.232			-8.026
6802.000			-72.191			-8.021
6901.000			-72.170			-8.019
7000.000			-72.150			-8.017
7101.000			-72.130			-8.014
7200.000			-72.111			-8.012
7300.000			-72.091			-8.010
7401.000			-72.071			-8.008
7500.000			-72.034			-8.004
7601.000			-72.015			-8.002
7702.000			-71.994			-7.999
7800.000			-71.974			-7.997
7900.000			-71.954			-7.995
8001.000			-71.936			-7.993
8100.000			-71.919			-7.991
8200.000			-71.902			-7.989
8302.000			-71.868			-7.985
8401.000			-71.851			-7.983
8501.000			-71.835			-7.982
8601.000			-71.819			-7.980
8700.000			-71.802			-7.978
8800.000			-71.785			-7.976
8901.000			-71.769			-7.974
9000.000			-71.738			-7.971
9101.000			-71.723			-7.969
9202.000			-71.708			-7.968
9301.000			-71.692			-7.966
9400.000			-71.678			-7.964
9501.000			-71.663			-7.963
9600.000			-71.648			-7.961
9700.000			-71.619			-7.958
9800.000			-71.605			-7.956
9901.000			-71.589			-7.954
10002.000			-71.575			-7.953
10100.000			-71.561			-7.951
10200.000			-71.546			-7.950
10301.000			-71.530			-7.948
10400.000			-71.517			-7.946
10500.000			-71.491			-7.943
10601.000			-71.476			-7.942
10701.000			-71.462			-7.940
10801.000			-71.450			-7.939
10901.000			-71.437			-7.937
11000.000			-71.424			-7.936
11100.000			-71.411			-7.935
11201.000			-71.386			-7.932
11300.000			-71.373			-7.930
11400.000			-71.361			-7.929
11502.000			-71.348			-7.928
11601.000			-71.336			-7.926
11700.000			-71.324			-7.925
11801.000			-71.311			-7.923
11900.000			-71.289			-7.921
12000.000			-71.276			-7.920
12101.000			-71.265			-7.918
12200.000			-71.253			-7.917
12301.000			-71.242			-7.916
12402.000			-71.230			-7.914
12500.000			-71.218			-7.913
12600.000			-71.206			-7.912
12701.000			-71.183			-7.909
12800.000			-71.172			-7.908
12900.000			-71.162			-7.907
13002.000			-71.152			-7.906
13101.000			-71.140			-7.904
13201.000			-71.131			-7.903
13300.000			-71.119			-7.902
13400.000			-71.098			-7.900
13501.000			-71.088			-7.899
13600.000			-71.077			-7.897
13700.000			-71.067			-7.896
13802.000			-71.056			-7.895
13901.000			-71.045			-7.894
14000.000			-71.036			-7.893
14101.000			-71.015			-7.891
14200.000			-71.005			-7.889
14300.000			-70.994			-7.888
14401.000			-70.986			-7.887
14500.000			-70.975			-7.886
14601.000			-70.965			-7.885
14702.000			-70.955			-7.884
14800.000			-70.937			-7.882
14900.000			-70.927			-7.881
15001.000			-70.918			-7.880
15100.000			-70.908			-7.879
15200.000			-70.899			-7.878
15301.000			-70.889			-7.877
15401.000			-70.880			-7.876
15501.000			-70.870			-7.874
15601.000			-70.852			-7.872
15700.000			-70.844			-7.872
15800.000			-70.836			-7.871
15901.000			-70.826			-7.870
16000.000			-70.817			-7.869
16100.000			-70.808			-7.868
16200.000			-70.799			-7.867
16301.000			-70.782			-7.865
16402.000			-70.773			-7.864
16500.000			-70.764			-7.863
16600.000			-70.756			-7.862
16701.000			-70.747			-7.861
16800.000			-70.739			-7.860
16900.000			-70.732			-7.859
17001.000			-70.713			-7.857
17101.000			-70.705			-7.856
17201.000			-70.697			-7.855
17301.000			-70.689			-7.854
17400.000			-70.680			-7.853
17500.000			-70.672			-7.852
17601.000			-70.664			-7.852
17700.000			-70.655			-7.851
17800.000			-70.639			-7.849
17902.000			-70.632			-7.848
18001.000			-70.624			-7.847
18100.000			-70.616			-7.846
18201.000			-70.609			-7.845
18300.000			-70.601			-7.845
18400.000			-70.592			-7.844
18501.000			-70.578			-7.842
18600.000			-70.570			-7.841
18701.000			-70.563			-7.840
18802.000			-70.554			-7.839
18900.000			-70.548			-7.839
19000.000			-70.541			-7.838
19101.000			-70.533			-7.837
19200.000			-70.519			-7.835
19300.000			-70.510			-7.834
19400.000			-70.503			-7.834
19501.000			-70.496			-7.833
19602.000			-70.489			-7.832
19700.000			-70.481			-7.831
19800.000			-70.474			-7.830
19901.000			-70.466			-7.830
20000.000			-70.453			-7.828
20100.000			-70.446			-7.827
20201.000			-70.438			-7.826
20301.000			-70.431			-7.826
20401.000			-70.424			-7.825
20501.000			-70.418			-7.824
20600.000			-70.412			-7.824
20700.000			-70.397			-7.822
20801.000			-70.389			-7.821
20900.000			-70.384			-7.820
21001.000			-70.378			-7.820
21102.000			-70.370			-7.819
21200.000			-70.364			-7.818
21300.000			-70.357			-7.817
21401.000			-70.344			-7.816
21500.000			-70.337			-7.815
21600.000			-70.331			-7.815
21701.000			-70.325			-7.814
21801.000			-70.318			-7.813
21901.000			-70.310			-7.812
22001.000			-70.304			-7.812
22100.000			-70.297			-7.811
22200.000			-70.285			-7.809
22301.000			-70.278			-7.809
22400.000			-70.271			-7.808
22500.000			-70.265			-7.807
22602.000			-70.260			-7.807
22701.000			-70.254			-7.806
22801.000			-70.248			-7.805
22900.000			-70.235			-7.804
23000.000			-70.228			-7.803
23101.000			-70.221			-7.802
23200.000			-70.215			-7.802
23300.000			-70.209			-7.801
23402.000			-70.204			-7.800
23501.000			-70.199			-7.800
23600.000			-70.185			-7.798
23701.000			-70.180			-7.798
23800.000			-70.174			-7.797
23900.000			-70.169			-7.797
24001.000			-70.162			-7.796
24101.000			-70.157			-7.795
24201.000			-70.150			-7.794
24301.000			-70.145			-7.794
24400.000			-70.133			-7.793
24500.000			-70.126			-7.792
24601.000			-70.120			-7.791
24700.000			-70.114			-7.790
24800.000			-70.109			-7.790
24902.000			-70.103			-7.789
25001.000			-70.098			-7.789
25100.000			-70.086			-7.787
25201.000			-70.081			-7.787
25300.000			-70.075			-7.786
25400.000			-70.069			-7.785
25501.000			-70.065			-7.785
25600.000			-70.058			-7.784
25702.000			-70.052			-7.784
25801.000			-70.040			-7.782
25900.000			-70.035			-7.782
26001.000			-70.030			-7.781
26100.000			-70.024			-7.780
26200.000			-70.019			-7.780
26301.000			-70.013			-7.779
26400.000			-70.008			-7.779
26501.000			-69.998			-7.778
26602.000			-69.992			-7.777
26700.000			-69.986			-7.776
26800.000			-69.981			-7.776
26901.000			-69.975			-7.775
27000.000			-69.970			-7.774
27100.000			-69.966			-7.774
27201.000			-69.960			-7.773
27301.000			-69.949			-7.772
27401.000			-69.945			-7.772
27501.000			-69.940			-7.771
27600.000			-69.934			-7.770
27700.000			-69.929			-7.770
27801.000			-69.923			-7.769
27900.000			-69.918			-7.769
28000.000			-69.910			-7.768
28102.000			-69.904			-7.767
28201.000			-69.898			-7.766
28301.000			-69.893			-7.766
28401.000			-69.888			-7.765
28500.000			-69.883			-7.765
28600.000			-69.878			-7.764
28701.000			-69.868			-7.763
28800.000			-69.864			-7.763
28900.000			-69.860			-7.762
29002.000			-69.854			-7.762
29101.000			-69.849			-7.761
29201.000			-69.844			-7.760
29300.000			-69.839			-7.760
29400.000			-69.835			-7.759
29501.000			-69.826			-7.758
29600.000			-69.821			-7.758
29700.000			-69.815			-7.757
29801.000			-69.811			-7.757
29901.000			-69.806			-7.756
30001.000			-69.801			-7.756
30101.000			-69.796			-7.755
30200.000			-69.788			-7.754
30300.000			-69.782			-7.754
30401.000			-69.778			-7.753
30500.000			-69.773			-7.753
30600.000			-69.767			-7.752
30702.000			-69.762			-7.751
30801.000			-69.758			-7.751
30900.000			-69.750			-7.750
31001.000			-69.745			-7.749
31100.000			-69.741			-7.749
31200.000			-69.737			-7.749
31301.000			-69.732			-7.748
31400.000			-69.727			-7.747
31501.000			-69.722			-7.747
31602.000			-69.718			-7.746
31701.000			-69.710			-7.746
31800.000			-69.705			-7.745
31901.000			-69.700			-7.744
32000.000			-69.696			-7.744
32100.000			-69.692			-7.744
32200.000			-69.687			-7.743
32300.000			-69.683			-7.743
32402.000			-69.674			-7.742
32501.000			-69.669			-7.741
32600.000			-69.664			-7.740
32701.000			-69.660			-7.740
32800.000			-69.657			-7.740
32900.000			-69.652			-7.739
33001.000			-69.647			-7.739
33100.000			-69.639			-7.738
33201.000			-69.634			-7.737
33302.000			-69.630			-7.737
33400.000			-69.627			-7.736
33500.000			-69.622			-7.736
33601.000			-69.617			-7.735
33700.000			-69.613			-7.735
33800.000			-69.608			-7.734
33901.000			-69.601			-7.733
34001.000			-69.597			-7.733
34101.000			-69.593			-7.733
34201.000			-69.589			-7.732
34300.000			-69.586			-7.732
34400.000			-69.581			-7.731
34501.000			-69.576			-7.731
34600.000			-69.568			-7.730
34700.000			-69.564			-7.729
34801.000			-69.560			-7.729
34901.000			-69.556			-7.728
35001.000			-69.551			-7.728
35101.000			-69.546			-7.727
35200.000			-69.543			-7.727
35300.000			-69.535			-7.726
35400.000			-69.531			-7.726
35500.000			-69.527			-7.725
35601.000			-69.522			-7.725
35701.000			-69.519			-7.724
35801.000			-69.516			-7.724
35901.000			-69.512			-7.724
36000.000			-69.507			-7.723
36100.000			-69.500			-7.722
36201.000			-69.496			-7.722
36300.000			-69.492			-7.721
36400.000			-69.487			-7.721
36502.000			-69.483			-7.720
36601.000			-69.479			-7.720
36700.000			-69.476			-7.720
36801.000			-69.468			-7.719
36900.000			-69.464			-7.718
37000.000			-69.460			-7.718
37101.000			-69.456			-7.717
37200.000			-69.452			-7.717
37301.000			-69.448			-7.716
37402.000			-69.445			-7.716
37500.000			-69.438			-7.715
37600.000			-69.435			-7.715
37701.000			-69.431			-7.715
37800.000			-69.426			-7.714
37900.000			-69.422			-7.714
38001.000			-69.418			-7.713
38101.000			-69.414			-7.713
38201.000			-69.408			-7.712
38302.000			-69.404			-7.712
38400.000			-69.400			-7.711
38500.000			-69.396			-7.711
38600.000			-69.392			-7.710
38700.000			-69.388			-7.710
38801.000			-69.385			-7.709
38900.000			-69.381			-7.709
39001.000			-69.374			-7.708
39102.000			-69.370			-7.708
39200.000			-69.366			-7.707
39300.000			-69.363			-7.707
39401.000			-69.360			-7.707
39500.000			-69.356			-7.706
39600.000			-69.353			-7.706
39701.000			-69.346			-7.705
39801.000			-69.342			-7.705
39901.000			-69.338			-7.704
40001.000			-69.336			-7.704
40100.000			-69.332			-7.704
40200.000			-69.328			-7.703
40301.000			-69.325			-7.703
40400.000			-69.317			-7.702
40500.000			-69.313			-7.701
40602.000			-69.309			-7.701
40701.000			-69.306			-7.701
40800.000			-69.304			-7.700
40901.000			-69.301			-7.700
41000.000			-69.296			-7.700
41100.000			-69.293			-7.699
41201.000			-69.286			-7.698
41300.000			-69.283			-7.698
41401.000			-69.279			-7.698
41502.000			-69.276			-7.697
41600.000			-69.273			-7.697
41700.000			-69.269			-7.697
41800.000			-69.266			-7.696
41900.000			-69.259			-7.695
42001.000			-69.256			-7.695
42100.000			-69.253			-7.695
42201.000			-69.250			-7.694
42302.000			-69.246			-7.694
42400.000			-69.242			-7.694
42500.000			-69.239			-7.693
42601.000			-69.232			-7.692
42700.000			-69.229			-7.692
42800.000			-69.226			-7.692
42901.000			-69.222			-7.691
43001.000			-69.219			-7.691
43101.000			-69.215			-7.691
43201.000			-69.212			-7.690
43300.000			-69.209			-7.690
43400.000			-69.203			-7.689
43501.000			-69.198			-7.689
43600.000			-69.195			-7.688
43700.000			-69.192			-7.688
43802.000			-69.190			-7.688
43901.000			-69.186			-7.687
44000.000			-69.183			-7.687
44101.000			-69.176			-7.686
44200.000			-69.172			-7.686
44300.000			-69.169			-7.685
44401.000			-69.165			-7.685
44500.000			-69.163			-7.685
44601.000			-69.161			-7.685
44702.000			-69.158			-7.684
44800.000			-69.153			-7.684
44900.000			-69.149			-7.683
45000.000			-69.144			-7.683
45100.000			-69.141			-7.682
45201.000			-69.139			-7.682
45300.000			-69.136			-7.682
45401.000			-69.131			-7.681
45502.000			-69.128			-7.681
45601.000			-69.123			-7.680
45700.000			-69.120			-7.680
45801.000			-69.117			-7.680
45900.000			-69.114			-7.679
46000.000			-69.111			-7.679
46101.000			-69.108			-7.679
46201.000			-69.105			-7.678
46301.000			-69.097			-7.677
46402.000			-69.094			-7.677
46500.000			-69.091			-7.677
46600.000			-69.089			-7.677
46701.000			-69.085			-7.676
46800.000			-69.083			-7.676
46900.000			-69.080			-7.676
47001.000			-69.073			-7.675
47101.000			-69.070			-7.674
47201.000			-69.067			-7.674
47301.000			-69.065			-7.674
47400.000			-69.061			-7.673
47500.000			-69.059			-7.673
47601.000			-69.055			-7.673
47700.000			-69.051			-7.672
47800.000			-69.046			-7.672
47902.000			-69.043			-7.671
48001.000			-69.040			-7.671
48100.000			-69.038			-7.671
48200.000			-69.035			-7.671
48300.000			-69.032			-7.670
48401.000			-69.029			-7.670
48500.000			-69.021			-7.669
48600.000			-69.020			-7.669
48702.000			-69.016			-7.668
48801.000			-69.013			-7.668
48901.000			-69.012			-7.668
49001.000			-69.009			-7.668
49100.000			-69.005			-7.667
49200.000			-68.999			-7.667
49301.000			-68.996			-7.666
49400.000			-68.994			-7.666
49500.000			-68.991			-7.666
49602.000			-68.988			-7.665
49701.000			-68.984			-7.665
49800.000			-68.981			-7.665
49901.000			-68.977			-7.664
50000.000			-68.973			-7.664
50100.000			-68.971			-7.663
50201.000			-68.968			-7.663
50300.000			-68.965			-7.663
50401.000			-68.962			-7.662
50502.000			-68.959			-7.662
50601.000			-68.957			-7.662
50700.000			-68.950			-7.661
50801.000			-68.948			-7.661
50900.000			-68.945			-7.661
51000.000			-68.942			-7.660
51101.000			-68.939			-7.660
51200.000			-68.937			-7.660
51302.000			-68.935			-7.659
51401.000			-68.928			-7.659
51500.000			-68.925			-7.658
51601.000			-68.923			-7.658
51700.000			-68.920			-7.658
51800.000			-68.917			-7.657
51901.000			-68.914			-7.657
52000.000			-68.911			-7.657
52101.000			-68.906			-7.656
52202.000			-68.904			-7.656
52300.000			-68.901			-7.656
52400.000			-68.898			-7.655
52501.000			-68.896			-7.655
52600.000			-68.894			-7.655
52700.000			-68.891			-7.655
52801.000			-68.888			-7.654
52901.000			-68.883			-7.654
53001.000			-68.880			-7.653
53101.000			-68.878			-7.653
53200.000			-68.875			-7.653
53300.000			-68.871			-7.652
53401.000			-68.870			-7.652
53500.000			-68.866			-7.652
53600.000			-68.862			-7.651
53702.000			-68.859			-7.651
53801.000			-68.856			-7.651
53901.000			-68.853			-7.650
54001.000			-68.851			-7.650
54100.000			-68.848			-7.650
54200.000			-68.845			-7.649
54301.000			-68.839			-7.649
54400.000			-68.837			-7.649
54500.000			-68.835			-7.648
54602.000			-68.832			-7.648
54701.000			-68.829			-7.648
54801.000			-68.826			-7.647
54900.000			-68.825			-7.647
55000.000			-68.822			-7.647
55101.000			-68.817			-7.646
55200.000			-68.813			-7.646
55300.000			-68.811			-7.646
55402.000			-68.809			-7.645
55501.000			-68.806			-7.645
55601.000			-68.804			-7.645
55701.000			-68.801			-7.645
55800.000			-68.796			-7.644
55900.000			-68.794			-7.644
56001.000			-68.791			-7.643
56100.000			-68.788			-7.643
56200.000			-68.786			-7.643
56302.000			-68.783			-7.643
56401.000			-68.781			-7.642
56500.000			-68.776			-7.642
56601.000			-68.773			-7.641
56700.000			-68.770			-7.641
56800.000			-68.767			-7.641
56901.000			-68.765			-7.641
57000.000			-68.763			-7.640
57101.000			-68.761			-7.640
57202.000			-68.758			-7.640
57301.000			-68.753			-7.639
57400.000			-68.750			-7.639
57501.000			-68.748			-7.639
57600.000			-68.745			-7.638
57700.000			-68.743			-7.638
57800.000			-68.741			-7.638
57900.000			-68.739			-7.638
58002.000			-68.734			-7.637
58101.000			-68.731			-7.637
58200.000			-68.729			-7.637
58301.000			-68.727			-7.636
58400.000			-68.723			-7.636
58500.000			-68.721			-7.636
58601.000			-68.718			-7.635
58700.000			-68.714			-7.635
58801.000			-68.712			-7.635
58902.000			-68.710			-7.634
59001.000			-68.707			-7.634
59100.000			-68.705			-7.634
59201.000			-68.702			-7.634
59300.000			-68.699			-7.633
59400.000			-68.693			-7.633
59501.000			-68.689			-7.632
59600.000			-68.685			-7.632
59701.000			-68.683			-7.631
59802.000			-68.681			-7.631
59900.000			-68.679			-7.631
60000.000			-68.676			-7.631
60101.000			-68.674			-7.630
60200.000			-68.670			-7.630
60300.000			-68.668			-7.630
60401.000			-68.665			-7.629
60501.000			-68.662			-7.629
60601.000			-68.659			-7.629
60701.000			-68.657			-7.629
60800.000			-68.654			-7.628
60900.000			-68.651			-7.628
61000.000			-68.648			-7.628
61100.000			-68.646			-7.627
61201.000			-68.644			-7.627
61301.000			-68.641			-7.627
61401.000			-68.639			-7.627
61501.000			-68.636			-7.626
61600.000			-68.634			-7.626
61700.000			-68.629			-7.625
61801.000			-68.628			-7.625
61900.000			-68.626			-7.625
62000.000			-68.623			-7.625
62101.000			-68.621			-7.625
62201.000			-68.618			-7.624
62301.000			-68.616			-7.624
62401.000			-68.611			-7.623
62500.000			-68.609			-7.623
62600.000			-68.607			-7.623
62701.000			-68.604			-7.623
62800.000			-68.602			-7.622
62900.000			-68.600			-7.622
63002.000			-68.597			-7.622
63101.000			-68.593			-7.621
63200.000			-68.590			-7.621
63301.000			-68.587			-7.621
63400.000			-68.584			-7.620
63500.000			-68.583			-7.620
63601.000			-68.581			-7.620
63700.000			-68.578			-7.620
63801.000			-68.573			-7.619
63902.000			-68.572			-7.619
64000.000			-68.570			-7.619
64100.000			-68.569			-7.619
64200.000			-68.566			-7.618
64300.000			-68.562			-7.618
64401.000			-68.560			-7.618
64500.000			-68.558			-7.618
64600.000			-68.555			-7.617
64702.000			-68.552			-7.617
64801.000			-68.551			-7.617
64900.000			-68.548			-7.616
65001.000			-68.546			-7.616
65100.000			-68.544			-7.616
65200.000			-68.540			-7.616
65301.000			-68.536			-7.615
65400.000			-68.535			-7.615
65501.000			-68.533			-7.615
65602.000			-68.530			-7.614
65700.000			-68.527			-7.614
65800.000			-68.525			-7.614
65901.000			-68.524			-7.614
66000.000			-68.520			-7.613
66100.000			-68.517			-7.613
66201.000			-68.516			-7.613
66301.000			-68.514			-7.613
66401.000			-68.511			-7.612
66501.000			-68.508			-7.612
66600.000			-68.507			-7.612
66700.000			-68.505			-7.612
66801.000			-68.500			-7.611
66900.000			-68.497			-7.611
67000.000			-68.497			-7.611
67101.000			-68.494			-7.610
67201.000			-68.492			-7.610
67302.000			-68.489			-7.610
67400.000			-68.487			-7.610
67500.000			-68.482			-7.609
67601.000			-68.479			-7.609
67700.000			-68.478			-7.609
67800.000			-68.477			-7.609
67901.000			-68.474			-7.608
68001.000			-68.472			-7.608
68101.000			-68.471			-7.608
68202.000			-68.466			-7.607
68300.000			-68.464			-7.607
68400.000			-68.462			-7.607
68501.000			-68.460			-7.607
68600.000			-68.457			-7.606
68700.000			-68.456			-7.606
68801.000			-68.454			-7.606
