# Acquired on 21/12/2023 15:30:10 
# SPIDER: Creep_-9mm_07714532C-1
# CREEP MEASUREMENT

# time [ms]		force [N]		stiffness [N/mm]
0.000			17.530			-1.948
101.000			18.513			-2.057
202.000			18.908			-2.101
300.000			18.904			-2.100
400.000			18.798			-2.089
501.000			18.648			-2.072
600.000			18.592			-2.066
700.000			18.542			-2.060
802.000			18.498			-2.055
901.000			18.460			-2.051
1001.000			18.425			-2.047
1101.000			18.392			-2.044
1200.000			18.335			-2.037
1300.000			18.309			-2.034
1401.000			18.285			-2.032
1500.000			18.263			-2.029
1601.000			18.242			-2.027
1702.000			18.222			-2.025
1800.000			18.201			-2.022
1900.000			18.183			-2.020
2001.000			18.149			-2.017
2100.000			18.132			-2.015
2200.000			18.117			-2.013
2301.000			18.102			-2.011
2401.000			18.087			-2.010
2501.000			18.074			-2.008
2601.000			18.060			-2.007
2700.000			18.035			-2.004
2800.000			18.022			-2.002
2900.000			18.010			-2.001
3000.000			17.999			-2.000
3102.000			17.989			-1.999
3201.000			17.978			-1.998
3300.000			17.967			-1.996
3401.000			17.947			-1.994
3500.000			17.937			-1.993
3600.000			17.927			-1.992
3701.000			17.918			-1.991
3800.000			17.909			-1.990
3901.000			17.899			-1.989
4002.000			17.890			-1.988
4101.000			17.881			-1.987
4200.000			17.866			-1.985
4301.000			17.858			-1.984
4400.000			17.849			-1.983
4500.000			17.842			-1.982
4601.000			17.835			-1.982
4701.000			17.827			-1.981
4801.000			17.821			-1.980
4901.000			17.806			-1.978
5000.000			17.799			-1.978
5100.000			17.792			-1.977
5201.000			17.786			-1.976
5300.000			17.779			-1.975
5400.000			17.772			-1.975
5502.000			17.766			-1.974
5601.000			17.754			-1.973
5700.000			17.747			-1.972
5801.000			17.741			-1.971
5900.000			17.735			-1.971
6000.000			17.730			-1.970
6100.000			17.724			-1.969
6200.000			17.719			-1.969
6302.000			17.713			-1.968
6401.000			17.702			-1.967
6500.000			17.697			-1.966
6601.000			17.691			-1.966
6700.000			17.686			-1.965
6800.000			17.680			-1.964
6901.000			17.676			-1.964
7000.000			17.672			-1.964
7101.000			17.662			-1.962
7202.000			17.657			-1.962
7300.000			17.652			-1.961
7400.000			17.647			-1.961
7501.000			17.643			-1.960
7600.000			17.638			-1.960
7700.000			17.632			-1.959
7801.000			17.624			-1.958
7901.000			17.620			-1.958
8001.000			17.616			-1.957
8101.000			17.611			-1.957
8200.000			17.606			-1.956
8300.000			17.602			-1.956
8401.000			17.597			-1.955
8500.000			17.594			-1.955
8601.000			17.586			-1.954
8702.000			17.582			-1.954
8800.000			17.578			-1.953
8900.000			17.574			-1.953
9001.000			17.570			-1.952
9100.000			17.565			-1.952
9200.000			17.562			-1.951
9300.000			17.555			-1.951
9401.000			17.551			-1.950
9502.000			17.547			-1.950
9600.000			17.543			-1.949
9700.000			17.539			-1.949
9801.000			17.536			-1.948
9900.000			17.534			-1.948
10000.000			17.527			-1.947
10101.000			17.523			-1.947
10201.000			17.520			-1.947
10301.000			17.515			-1.946
10401.000			17.512			-1.946
10500.000			17.509			-1.945
10600.000			17.507			-1.945
10701.000			17.503			-1.945
10800.000			17.497			-1.944
10900.000			17.493			-1.944
11002.000			17.489			-1.943
11101.000			17.486			-1.943
11200.000			17.483			-1.943
11301.000			17.479			-1.942
11400.000			17.476			-1.942
11500.000			17.470			-1.941
11601.000			17.467			-1.941
11700.000			17.465			-1.941
11801.000			17.461			-1.940
11902.000			17.458			-1.940
12001.000			17.456			-1.940
12100.000			17.453			-1.939
12201.000			17.447			-1.939
12300.000			17.445			-1.938
12400.000			17.442			-1.938
12500.000			17.438			-1.938
12601.000			17.435			-1.937
12702.000			17.432			-1.937
12801.000			17.429			-1.937
12900.000			17.424			-1.936
13001.000			17.423			-1.936
13100.000			17.421			-1.936
13200.000			17.418			-1.935
13301.000			17.414			-1.935
13401.000			17.411			-1.935
13501.000			17.409			-1.934
13602.000			17.406			-1.934
13700.000			17.401			-1.933
13800.000			17.398			-1.933
13901.000			17.395			-1.933
14000.000			17.393			-1.933
14100.000			17.391			-1.932
14201.000			17.389			-1.932
14301.000			17.386			-1.932
14401.000			17.381			-1.931
14501.000			17.379			-1.931
14600.000			17.377			-1.931
14700.000			17.375			-1.931
14801.000			17.371			-1.930
14900.000			17.369			-1.930
15000.000			17.367			-1.930
15102.000			17.363			-1.929
15201.000			17.360			-1.929
15300.000			17.357			-1.929
15401.000			17.354			-1.928
15500.000			17.352			-1.928
15600.000			17.350			-1.928
15700.000			17.348			-1.928
15800.000			17.347			-1.927
15902.000			17.341			-1.927
16001.000			17.339			-1.927
16100.000			17.337			-1.926
16201.000			17.335			-1.926
16300.000			17.333			-1.926
16400.000			17.331			-1.926
16501.000			17.329			-1.925
16600.000			17.324			-1.925
16701.000			17.323			-1.925
16802.000			17.321			-1.925
16900.000			17.318			-1.924
17000.000			17.315			-1.924
17101.000			17.314			-1.924
17200.000			17.312			-1.924
17300.000			17.309			-1.923
17402.000			17.305			-1.923
17501.000			17.303			-1.923
17601.000			17.302			-1.922
17701.000			17.301			-1.922
17800.000			17.299			-1.922
17900.000			17.296			-1.922
18001.000			17.294			-1.922
18100.000			17.290			-1.921
18200.000			17.288			-1.921
18302.000			17.285			-1.921
18401.000			17.283			-1.920
18500.000			17.281			-1.920
18601.000			17.280			-1.920
18700.000			17.278			-1.920
18800.000			17.273			-1.919
18900.000			17.273			-1.919
19000.000			17.272			-1.919
19102.000			17.269			-1.919
19201.000			17.266			-1.918
19300.000			17.265			-1.918
19401.000			17.264			-1.918
19500.000			17.260			-1.918
19600.000			17.258			-1.918
19701.000			17.256			-1.917
19800.000			17.254			-1.917
19901.000			17.253			-1.917
20002.000			17.252			-1.917
20100.000			17.250			-1.917
20200.000			17.248			-1.916
20301.000			17.245			-1.916
20400.000			17.243			-1.916
20500.000			17.241			-1.916
20601.000			17.239			-1.915
20701.000			17.236			-1.915
20801.000			17.234			-1.915
20901.000			17.233			-1.915
21000.000			17.231			-1.915
21100.000			17.229			-1.914
21201.000			17.226			-1.914
21300.000			17.224			-1.914
21401.000			17.223			-1.914
21502.000			17.221			-1.913
21600.000			17.219			-1.913
21700.000			17.216			-1.913
21801.000			17.216			-1.913
21900.000			17.215			-1.913
22000.000			17.212			-1.912
22100.000			17.211			-1.912
22201.000			17.210			-1.912
22302.000			17.207			-1.912
22400.000			17.205			-1.912
22500.000			17.202			-1.911
22601.000			17.201			-1.911
22700.000			17.200			-1.911
22800.000			17.198			-1.911
22901.000			17.195			-1.911
23001.000			17.194			-1.910
23101.000			17.193			-1.910
23201.000			17.190			-1.910
23300.000			17.189			-1.910
23400.000			17.187			-1.910
23501.000			17.186			-1.910
23600.000			17.184			-1.909
23700.000			17.183			-1.909
23802.000			17.182			-1.909
23901.000			17.179			-1.909
24000.000			17.177			-1.909
24101.000			17.176			-1.908
24200.000			17.174			-1.908
24300.000			17.172			-1.908
24401.000			17.170			-1.908
24500.000			17.168			-1.908
24601.000			17.167			-1.907
24702.000			17.165			-1.907
24800.000			17.165			-1.907
24900.000			17.163			-1.907
25001.000			17.160			-1.907
25100.000			17.160			-1.907
25200.000			17.158			-1.906
25300.000			17.157			-1.906
25401.000			17.154			-1.906
25502.000			17.152			-1.906
25600.000			17.151			-1.906
25700.000			17.151			-1.906
25801.000			17.149			-1.905
25900.000			17.147			-1.905
26000.000			17.145			-1.905
26101.000			17.143			-1.905
26201.000			17.142			-1.905
26301.000			17.140			-1.904
26401.000			17.139			-1.904
26500.000			17.137			-1.904
26600.000			17.135			-1.904
26701.000			17.134			-1.904
26800.000			17.133			-1.904
26900.000			17.131			-1.903
27002.000			17.129			-1.903
27101.000			17.128			-1.903
27200.000			17.126			-1.903
27301.000			17.125			-1.903
27400.000			17.125			-1.903
27500.000			17.123			-1.903
27601.000			17.121			-1.902
27701.000			17.120			-1.902
27801.000			17.119			-1.902
27902.000			17.117			-1.902
28000.000			17.114			-1.902
28100.000			17.114			-1.902
28201.000			17.113			-1.901
28300.000			17.109			-1.901
28400.000			17.108			-1.901
28502.000			17.106			-1.901
28601.000			17.106			-1.901
28702.000			17.106			-1.901
28800.000			17.103			-1.900
28900.000			17.102			-1.900
29001.000			17.101			-1.900
29100.000			17.098			-1.900
29200.000			17.096			-1.900
29301.000			17.096			-1.900
29401.000			17.095			-1.899
29501.000			17.094			-1.899
29601.000			17.093			-1.899
29700.000			17.091			-1.899
29800.000			17.090			-1.899
29901.000			17.087			-1.899
30000.000			17.086			-1.898
30100.000			17.086			-1.898
30202.000			17.084			-1.898
30301.000			17.082			-1.898
30400.000			17.082			-1.898
30501.000			17.079			-1.898
30600.000			17.078			-1.898
30700.000			17.077			-1.897
30801.000			17.077			-1.897
30900.000			17.076			-1.897
31001.000			17.074			-1.897
31102.000			17.072			-1.897
31200.000			17.072			-1.897
31300.000			17.071			-1.897
31401.000			17.068			-1.896
31500.000			17.067			-1.896
31600.000			17.065			-1.896
31702.000			17.063			-1.896
31801.000			17.062			-1.896
31902.000			17.062			-1.896
32000.000			17.060			-1.896
32100.000			17.059			-1.895
32201.000			17.057			-1.895
32300.000			17.056			-1.895
32400.000			17.055			-1.895
32502.000			17.054			-1.895
32601.000			17.054			-1.895
32700.000			17.052			-1.895
32801.000			17.051			-1.895
32900.000			17.049			-1.894
33000.000			17.048			-1.894
33101.000			17.047			-1.894
33200.000			17.047			-1.894
33301.000			17.045			-1.894
33402.000			17.044			-1.894
33500.000			17.041			-1.893
33600.000			17.040			-1.893
33701.000			17.038			-1.893
33800.000			17.037			-1.893
33900.000			17.036			-1.893
34001.000			17.036			-1.893
34101.000			17.035			-1.893
34201.000			17.032			-1.892
34301.000			17.031			-1.892
34400.000			17.031			-1.892
34500.000			17.030			-1.892
34601.000			17.029			-1.892
34700.000			17.028			-1.892
34800.000			17.027			-1.892
34902.000			17.025			-1.892
35001.000			17.024			-1.892
35101.000			17.022			-1.891
35200.000			17.022			-1.891
35300.000			17.020			-1.891
35401.000			17.019			-1.891
35500.000			17.018			-1.891
35600.000			17.018			-1.891
35702.000			17.015			-1.891
35801.000			17.015			-1.891
35900.000			17.013			-1.890
36001.000			17.012			-1.890
36100.000			17.011			-1.890
36200.000			17.010			-1.890
36301.000			17.010			-1.890
36401.000			17.008			-1.890
36501.000			17.007			-1.890
36601.000			17.007			-1.890
36700.000			17.005			-1.889
36800.000			17.004			-1.889
36901.000			17.004			-1.889
37000.000			17.002			-1.889
37100.000			17.001			-1.889
37202.000			16.999			-1.889
37301.000			16.999			-1.889
37400.000			16.998			-1.889
37501.000			16.996			-1.888
37600.000			16.995			-1.888
37700.000			16.994			-1.888
37801.000			16.994			-1.888
37900.000			16.991			-1.888
38002.000			16.990			-1.888
38101.000			16.989			-1.888
38201.000			16.989			-1.888
38301.000			16.988			-1.888
38400.000			16.987			-1.887
38500.000			16.986			-1.887
38601.000			16.984			-1.887
38700.000			16.983			-1.887
38800.000			16.982			-1.887
38902.000			16.981			-1.887
39001.000			16.980			-1.887
39100.000			16.980			-1.887
39201.000			16.979			-1.887
39300.000			16.977			-1.886
39400.000			16.976			-1.886
39501.000			16.975			-1.886
39600.000			16.974			-1.886
39701.000			16.972			-1.886
39802.000			16.972			-1.886
39901.000			16.972			-1.886
40000.000			16.969			-1.885
40101.000			16.969			-1.885
40200.000			16.968			-1.885
40300.000			16.966			-1.885
40401.000			16.966			-1.885
40501.000			16.965			-1.885
40601.000			16.964			-1.885
40702.000			16.964			-1.885
40800.000			16.963			-1.885
40900.000			16.961			-1.885
41001.000			16.959			-1.884
41100.000			16.959			-1.884
41200.000			16.958			-1.884
41300.000			16.957			-1.884
41401.000			16.956			-1.884
41502.000			16.953			-1.884
41600.000			16.952			-1.884
41700.000			16.952			-1.884
41801.000			16.951			-1.883
41900.000			16.951			-1.883
42000.000			16.952			-1.884
42101.000			16.951			-1.883
42201.000			16.949			-1.883
42301.000			16.946			-1.883
42401.000			16.945			-1.883
42500.000			16.946			-1.883
42600.000			16.944			-1.883
42701.000			16.943			-1.883
42800.000			16.943			-1.883
42900.000			16.942			-1.882
43002.000			16.940			-1.882
43101.000			16.939			-1.882
43200.000			16.937			-1.882
43301.000			16.937			-1.882
43400.000			16.937			-1.882
43500.000			16.936			-1.882
43601.000			16.935			-1.882
43700.000			16.934			-1.882
43801.000			16.932			-1.881
43902.000			16.931			-1.881
44000.000			16.931			-1.881
44100.000			16.930			-1.881
44201.000			16.930			-1.881
44300.000			16.928			-1.881
44400.000			16.928			-1.881
44500.000			16.927			-1.881
44601.000			16.926			-1.881
44702.000			16.924			-1.880
44800.000			16.923			-1.880
44900.000			16.923			-1.880
45001.000			16.922			-1.880
45100.000			16.921			-1.880
45200.000			16.920			-1.880
45301.000			16.919			-1.880
45401.000			16.918			-1.880
45501.000			16.918			-1.880
45601.000			16.917			-1.880
45700.000			16.915			-1.879
45800.000			16.915			-1.879
45901.000			16.914			-1.879
46000.000			16.913			-1.879
46100.000			16.912			-1.879
46202.000			16.911			-1.879
46301.000			16.910			-1.879
46400.000			16.911			-1.879
46501.000			16.910			-1.879
46600.000			16.907			-1.879
46700.000			16.906			-1.878
46801.000			16.906			-1.878
46900.000			16.905			-1.878
47000.000			16.905			-1.878
47102.000			16.904			-1.878
47201.000			16.903			-1.878
47300.000			16.902			-1.878
47401.000			16.900			-1.878
47500.000			16.899			-1.878
47600.000			16.899			-1.878
47700.000			16.899			-1.878
47800.000			16.898			-1.878
47902.000			16.897			-1.877
48001.000			16.896			-1.877
48100.000			16.894			-1.877
48201.000			16.894			-1.877
48300.000			16.893			-1.877
48400.000			16.892			-1.877
48501.000			16.892			-1.877
48600.000			16.891			-1.877
48701.000			16.890			-1.877
48802.000			16.889			-1.877
48901.000			16.889			-1.877
49000.000			16.888			-1.876
49101.000			16.888			-1.876
49200.000			16.887			-1.876
49300.000			16.886			-1.876
49401.000			16.885			-1.876
49500.000			16.884			-1.876
49601.000			16.882			-1.876
49702.000			16.882			-1.876
49800.000			16.881			-1.876
49900.000			16.880			-1.876
50001.000			16.879			-1.875
50100.000			16.879			-1.875
50200.000			16.878			-1.875
50301.000			16.876			-1.875
50401.000			16.875			-1.875
50501.000			16.874			-1.875
50601.000			16.874			-1.875
50700.000			16.874			-1.875
50800.000			16.873			-1.875
50900.000			16.873			-1.875
51000.000			16.871			-1.875
51101.000			16.871			-1.875
51201.000			16.870			-1.874
51301.000			16.869			-1.874
51401.000			16.868			-1.874
51500.000			16.867			-1.874
51600.000			16.866			-1.874
51701.000			16.866			-1.874
51800.000			16.865			-1.874
51900.000			16.864			-1.874
52001.000			16.863			-1.874
52101.000			16.863			-1.874
52201.000			16.862			-1.874
52301.000			16.862			-1.874
52400.000			16.860			-1.873
52500.000			16.859			-1.873
52601.000			16.858			-1.873
52700.000			16.858			-1.873
52800.000			16.858			-1.873
52902.000			16.857			-1.873
53001.000			16.857			-1.873
53100.000			16.856			-1.873
53201.000			16.854			-1.873
53300.000			16.854			-1.873
53400.000			16.853			-1.873
53501.000			16.853			-1.873
53600.000			16.852			-1.872
53701.000			16.852			-1.872
53802.000			16.850			-1.872
53900.000			16.848			-1.872
54000.000			16.848			-1.872
54100.000			16.846			-1.872
54200.000			16.846			-1.872
54301.000			16.845			-1.872
54400.000			16.845			-1.872
54501.000			16.844			-1.872
54602.000			16.843			-1.871
54700.000			16.842			-1.871
54800.000			16.842			-1.871
54901.000			16.841			-1.871
55000.000			16.840			-1.871
55100.000			16.839			-1.871
55201.000			16.839			-1.871
55301.000			16.838			-1.871
55401.000			16.837			-1.871
55501.000			16.837			-1.871
55600.000			16.836			-1.871
55700.000			16.836			-1.871
55801.000			16.836			-1.871
55900.000			16.835			-1.871
56000.000			16.833			-1.870
56102.000			16.832			-1.870
56201.000			16.832			-1.870
56301.000			16.831			-1.870
56401.000			16.830			-1.870
56500.000			16.830			-1.870
56600.000			16.829			-1.870
56701.000			16.828			-1.870
56800.000			16.828			-1.870
56900.000			16.826			-1.870
57002.000			16.826			-1.870
57101.000			16.825			-1.869
57200.000			16.825			-1.869
57300.000			16.824			-1.869
57400.000			16.823			-1.869
57501.000			16.822			-1.869
57600.000			16.821			-1.869
57700.000			16.821			-1.869
57802.000			16.820			-1.869
57901.000			16.820			-1.869
58000.000			16.819			-1.869
58101.000			16.818			-1.869
58200.000			16.818			-1.869
58300.000			16.816			-1.868
58401.000			16.817			-1.869
58500.000			16.816			-1.868
58601.000			16.814			-1.868
58702.000			16.814			-1.868
58801.000			16.815			-1.868
58900.000			16.813			-1.868
59001.000			16.812			-1.868
59100.000			16.811			-1.868
59200.000			16.810			-1.868
59301.000			16.810			-1.868
59401.000			16.809			-1.868
59501.000			16.808			-1.868
59601.000			16.808			-1.868
59700.000			16.807			-1.867
59800.000			16.806			-1.867
59901.000			16.805			-1.867
60000.000			16.804			-1.867
60100.000			16.804			-1.867
60202.000			16.802			-1.867
60301.000			16.802			-1.867
60402.000			16.801			-1.867
60500.000			16.801			-1.867
60600.000			16.801			-1.867
60701.000			16.801			-1.867
60800.000			16.800			-1.867
60900.000			16.799			-1.867
61001.000			16.799			-1.867
61101.000			16.798			-1.866
61201.000			16.797			-1.866
61301.000			16.796			-1.866
61400.000			16.795			-1.866
61500.000			16.794			-1.866
61601.000			16.794			-1.866
61700.000			16.793			-1.866
61800.000			16.792			-1.866
61902.000			16.792			-1.866
62001.000			16.791			-1.866
62100.000			16.791			-1.866
62201.000			16.791			-1.866
62300.000			16.789			-1.865
62400.000			16.790			-1.866
62501.000			16.789			-1.865
62600.000			16.788			-1.865
62701.000			16.787			-1.865
62802.000			16.785			-1.865
62900.000			16.786			-1.865
63000.000			16.786			-1.865
63101.000			16.785			-1.865
63200.000			16.784			-1.865
63300.000			16.784			-1.865
63401.000			16.783			-1.865
63501.000			16.782			-1.865
63602.000			16.781			-1.865
63701.000			16.781			-1.865
63800.000			16.781			-1.865
63901.000			16.780			-1.864
64000.000			16.778			-1.864
64100.000			16.778			-1.864
64201.000			16.777			-1.864
64301.000			16.776			-1.864
64401.000			16.776			-1.864
64502.000			16.775			-1.864
64600.000			16.775			-1.864
64700.000			16.775			-1.864
64801.000			16.774			-1.864
64900.000			16.773			-1.864
65000.000			16.773			-1.864
65101.000			16.772			-1.864
65201.000			16.772			-1.864
65301.000			16.771			-1.863
65401.000			16.771			-1.863
65500.000			16.770			-1.863
65600.000			16.769			-1.863
65701.000			16.767			-1.863
65800.000			16.767			-1.863
65900.000			16.766			-1.863
66002.000			16.765			-1.863
66101.000			16.765			-1.863
66200.000			16.765			-1.863
66301.000			16.764			-1.863
66400.000			16.762			-1.862
66500.000			16.763			-1.863
66601.000			16.762			-1.862
66700.000			16.762			-1.862
66800.000			16.762			-1.862
66902.000			16.761			-1.862
67001.000			16.761			-1.862
67101.000			16.758			-1.862
67200.000			16.758			-1.862
67300.000			16.758			-1.862
67401.000			16.758			-1.862
67500.000			16.757			-1.862
67600.000			16.756			-1.862
67702.000			16.756			-1.862
67801.000			16.754			-1.862
67900.000			16.754			-1.862
68001.000			16.753			-1.861
68100.000			16.753			-1.861
68200.000			16.752			-1.861
68301.000			16.752			-1.861
68400.000			16.752			-1.861
68501.000			16.751			-1.861
68602.000			16.749			-1.861
68701.000			16.748			-1.861
68800.000			16.748			-1.861
68901.000			16.748			-1.861
69000.000			16.747			-1.861
69100.000			16.747			-1.861
69201.000			16.747			-1.861
69300.000			16.745			-1.861
69401.000			16.745			-1.861
69502.000			16.744			-1.860
69600.000			16.743			-1.860
69700.000			16.743			-1.860
69801.000			16.743			-1.860
69900.000			16.741			-1.860
70000.000			16.740			-1.860
70100.000			16.740			-1.860
70201.000			16.741			-1.860
70302.000			16.739			-1.860
70401.000			16.739			-1.860
70500.000			16.739			-1.860
70601.000			16.739			-1.860
70700.000			16.738			-1.860
70800.000			16.737			-1.860
70901.000			16.736			-1.860
71000.000			16.735			-1.859
71101.000			16.736			-1.860
71202.000			16.735			-1.859
