# Acquired on 20/12/2023 13:18:48 
# SPIDER: Creep_-5mm_07714532C-1
# CREEP MEASUREMENT

# time [ms]		force [N]		stiffness [N/mm]
0.000			5.798			-1.160
100.000			6.228			-1.246
201.000			6.393			-1.279
301.000			6.394			-1.279
401.000			6.362			-1.272
501.000			6.335			-1.267
600.000			6.297			-1.259
700.000			6.282			-1.256
801.000			6.269			-1.254
900.000			6.255			-1.251
1000.000			6.244			-1.249
1102.000			6.235			-1.247
1201.000			6.226			-1.245
1300.000			6.209			-1.242
1401.000			6.202			-1.240
1500.000			6.194			-1.239
1600.000			6.187			-1.237
1701.000			6.181			-1.236
1801.000			6.175			-1.235
1901.000			6.169			-1.234
2001.000			6.158			-1.232
2100.000			6.153			-1.231
2200.000			6.148			-1.230
2301.000			6.144			-1.229
2400.000			6.140			-1.228
2500.000			6.135			-1.227
2602.000			6.131			-1.226
2701.000			6.126			-1.225
2800.000			6.118			-1.224
2901.000			6.115			-1.223
3000.000			6.111			-1.222
3101.000			6.107			-1.221
3200.000			6.104			-1.221
3301.000			6.100			-1.220
3402.000			6.096			-1.219
3500.000			6.089			-1.218
3600.000			6.087			-1.217
3701.000			6.084			-1.217
3800.000			6.082			-1.216
3900.000			6.079			-1.216
4001.000			6.076			-1.215
4101.000			6.073			-1.215
4201.000			6.067			-1.213
4301.000			6.065			-1.213
4400.000			6.063			-1.213
4500.000			6.060			-1.212
4601.000			6.057			-1.211
4700.000			6.055			-1.211
4801.000			6.054			-1.211
4902.000			6.052			-1.210
5000.000			6.046			-1.209
5100.000			6.045			-1.209
5201.000			6.043			-1.209
5300.000			6.041			-1.208
5400.000			6.039			-1.208
5502.000			6.037			-1.207
5601.000			6.035			-1.207
5700.000			6.030			-1.206
5801.000			6.029			-1.206
5900.000			6.027			-1.205
6000.000			6.025			-1.205
6101.000			6.023			-1.205
6200.000			6.022			-1.204
6302.000			6.019			-1.204
6401.000			6.016			-1.203
6500.000			6.015			-1.203
6601.000			6.013			-1.203
6700.000			6.011			-1.202
6800.000			6.010			-1.202
6901.000			6.008			-1.202
7001.000			6.006			-1.201
7101.000			6.004			-1.201
7201.000			6.001			-1.200
7300.000			6.000			-1.200
7400.000			5.998			-1.200
7501.000			5.997			-1.199
7600.000			5.996			-1.199
7700.000			5.995			-1.199
7802.000			5.993			-1.199
7901.000			5.990			-1.198
8000.000			5.989			-1.198
8101.000			5.988			-1.198
8200.000			5.985			-1.197
8300.000			5.983			-1.197
8401.000			5.982			-1.196
8500.000			5.981			-1.196
8601.000			5.978			-1.196
8702.000			5.978			-1.196
8800.000			5.978			-1.196
8900.000			5.976			-1.195
9001.000			5.975			-1.195
9100.000			5.974			-1.195
9200.000			5.971			-1.194
9302.000			5.969			-1.194
9401.000			5.969			-1.194
9501.000			5.968			-1.194
9600.000			5.966			-1.193
9700.000			5.965			-1.193
9801.000			5.963			-1.193
9900.000			5.962			-1.192
10000.000			5.962			-1.192
10102.000			5.958			-1.192
10201.000			5.957			-1.191
10300.000			5.956			-1.191
10401.000			5.956			-1.191
10500.000			5.955			-1.191
10600.000			5.954			-1.191
10701.000			5.952			-1.190
10800.000			5.950			-1.190
10901.000			5.950			-1.190
11002.000			5.949			-1.190
11100.000			5.949			-1.190
11200.000			5.947			-1.189
11301.000			5.946			-1.189
11400.000			5.944			-1.189
11500.000			5.943			-1.189
11601.000			5.943			-1.189
11701.000			5.940			-1.188
11801.000			5.940			-1.188
11901.000			5.939			-1.188
12000.000			5.937			-1.187
12100.000			5.936			-1.187
12201.000			5.936			-1.187
12300.000			5.934			-1.187
12400.000			5.932			-1.186
12502.000			5.932			-1.186
12601.000			5.931			-1.186
12701.000			5.931			-1.186
12800.000			5.930			-1.186
12900.000			5.929			-1.186
13001.000			5.927			-1.185
13100.000			5.927			-1.185
13200.000			5.925			-1.185
13302.000			5.924			-1.185
13401.000			5.923			-1.185
13500.000			5.923			-1.185
13601.000			5.923			-1.185
13700.000			5.922			-1.184
13800.000			5.920			-1.184
13901.000			5.919			-1.184
14001.000			5.918			-1.184
14101.000			5.917			-1.183
14202.000			5.916			-1.183
14300.000			5.914			-1.183
14400.000			5.915			-1.183
14501.000			5.913			-1.183
14600.000			5.913			-1.183
14700.000			5.913			-1.183
14801.000			5.912			-1.182
14901.000			5.910			-1.182
15001.000			5.909			-1.182
15101.000			5.908			-1.182
15200.000			5.908			-1.182
15300.000			5.907			-1.181
15401.000			5.907			-1.181
15500.000			5.906			-1.181
15600.000			5.906			-1.181
15702.000			5.904			-1.181
15801.000			5.903			-1.181
15901.000			5.903			-1.181
16000.000			5.901			-1.180
16100.000			5.900			-1.180
16201.000			5.899			-1.180
16300.000			5.899			-1.180
16401.000			5.898			-1.180
16502.000			5.899			-1.180
16601.000			5.898			-1.180
16700.000			5.896			-1.179
16801.000			5.896			-1.179
16900.000			5.894			-1.179
17000.000			5.894			-1.179
17101.000			5.892			-1.178
17200.000			5.892			-1.178
17301.000			5.891			-1.178
17402.000			5.890			-1.178
17500.000			5.890			-1.178
17600.000			5.890			-1.178
17701.000			5.889			-1.178
17800.000			5.889			-1.178
17900.000			5.888			-1.178
18001.000			5.887			-1.177
18101.000			5.886			-1.177
18201.000			5.885			-1.177
18301.000			5.884			-1.177
18400.000			5.884			-1.177
18500.000			5.883			-1.177
18601.000			5.883			-1.177
18700.000			5.883			-1.177
18800.000			5.882			-1.176
18902.000			5.881			-1.176
19001.000			5.880			-1.176
19101.000			5.879			-1.176
19200.000			5.879			-1.176
19300.000			5.879			-1.176
19401.000			5.877			-1.175
19500.000			5.877			-1.175
19600.000			5.876			-1.175
19702.000			5.875			-1.175
19801.000			5.875			-1.175
19900.000			5.874			-1.175
20001.000			5.874			-1.175
20100.000			5.873			-1.175
20200.000			5.872			-1.174
20301.000			5.871			-1.174
20400.000			5.871			-1.174
20501.000			5.870			-1.174
20602.000			5.870			-1.174
20700.000			5.869			-1.174
20800.000			5.868			-1.174
20901.000			5.867			-1.173
21000.000			5.867			-1.173
21100.000			5.867			-1.173
21201.000			5.865			-1.173
21301.000			5.865			-1.173
21401.000			5.865			-1.173
21501.000			5.864			-1.173
21600.000			5.864			-1.173
21700.000			5.863			-1.173
21801.000			5.863			-1.173
21900.000			5.861			-1.172
22000.000			5.862			-1.172
22102.000			5.861			-1.172
22201.000			5.861			-1.172
22301.000			5.859			-1.172
22400.000			5.859			-1.172
22500.000			5.859			-1.172
22601.000			5.858			-1.172
22700.000			5.857			-1.171
22800.000			5.856			-1.171
22902.000			5.856			-1.171
23001.000			5.856			-1.171
23100.000			5.855			-1.171
23201.000			5.854			-1.171
23300.000			5.853			-1.171
23400.000			5.854			-1.171
23501.000			5.854			-1.171
23600.000			5.853			-1.171
23701.000			5.851			-1.170
23802.000			5.850			-1.170
23900.000			5.851			-1.170
24000.000			5.851			-1.170
24101.000			5.851			-1.170
24200.000			5.851			-1.170
24300.000			5.850			-1.170
24401.000			5.849			-1.170
24501.000			5.849			-1.170
24601.000			5.849			-1.170
24701.000			5.847			-1.169
24800.000			5.846			-1.169
24900.000			5.846			-1.169
25001.000			5.847			-1.169
25100.000			5.845			-1.169
25200.000			5.845			-1.169
25302.000			5.844			-1.169
25401.000			5.844			-1.169
25501.000			5.843			-1.169
25600.000			5.843			-1.169
25700.000			5.842			-1.168
25801.000			5.840			-1.168
25900.000			5.840			-1.168
26000.000			5.840			-1.168
26102.000			5.840			-1.168
26201.000			5.839			-1.168
26300.000			5.840			-1.168
26401.000			5.839			-1.168
26500.000			5.839			-1.168
26600.000			5.839			-1.168
26701.000			5.838			-1.168
26800.000			5.837			-1.167
26901.000			5.836			-1.167
27002.000			5.835			-1.167
27100.000			5.834			-1.167
27200.000			5.835			-1.167
27301.000			5.834			-1.167
27400.000			5.834			-1.167
27500.000			5.833			-1.167
27601.000			5.833			-1.167
27701.000			5.833			-1.167
27801.000			5.832			-1.166
27901.000			5.832			-1.166
28000.000			5.830			-1.166
28100.000			5.830			-1.166
28201.000			5.830			-1.166
28300.000			5.830			-1.166
28400.000			5.830			-1.166
28502.000			5.828			-1.166
28601.000			5.828			-1.166
28701.000			5.828			-1.166
28800.000			5.827			-1.165
28900.000			5.827			-1.165
29001.000			5.828			-1.166
29100.000			5.827			-1.165
29200.000			5.825			-1.165
29302.000			5.826			-1.165
29401.000			5.825			-1.165
29500.000			5.825			-1.165
29601.000			5.824			-1.165
29700.000			5.824			-1.165
29800.000			5.825			-1.165
29901.000			5.822			-1.164
30000.000			5.822			-1.164
30101.000			5.821			-1.164
30202.000			5.821			-1.164
30300.000			5.822			-1.164
30400.000			5.821			-1.164
30501.000			5.820			-1.164
30600.000			5.819			-1.164
30700.000			5.820			-1.164
30802.000			5.820			-1.164
30901.000			5.819			-1.164
31000.000			5.819			-1.164
31101.000			5.818			-1.164
31200.000			5.818			-1.164
31300.000			5.817			-1.163
31401.000			5.816			-1.163
31500.000			5.817			-1.163
31601.000			5.816			-1.163
31702.000			5.814			-1.163
31800.000			5.815			-1.163
31901.000			5.815			-1.163
32000.000			5.815			-1.163
32100.000			5.813			-1.163
32201.000			5.813			-1.163
32300.000			5.814			-1.163
32401.000			5.814			-1.163
32502.000			5.812			-1.162
32600.000			5.811			-1.162
32700.000			5.811			-1.162
32801.000			5.812			-1.162
32900.000			5.810			-1.162
33000.000			5.810			-1.162
33101.000			5.811			-1.162
33201.000			5.810			-1.162
33301.000			5.809			-1.162
33401.000			5.809			-1.162
33500.000			5.809			-1.162
33600.000			5.808			-1.162
33701.000			5.808			-1.162
33800.000			5.808			-1.162
33900.000			5.807			-1.161
34002.000			5.807			-1.161
34101.000			5.806			-1.161
34200.000			5.806			-1.161
34301.000			5.805			-1.161
34400.000			5.805			-1.161
34500.000			5.805			-1.161
34601.000			5.805			-1.161
34701.000			5.805			-1.161
34801.000			5.804			-1.161
34901.000			5.803			-1.161
35000.000			5.802			-1.160
35101.000			5.802			-1.160
35200.000			5.802			-1.160
35300.000			5.802			-1.160
35401.000			5.801			-1.160
35501.000			5.800			-1.160
35601.000			5.800			-1.160
35701.000			5.799			-1.160
35800.000			5.800			-1.160
35900.000			5.799			-1.160
36001.000			5.799			-1.160
36100.000			5.798			-1.160
36200.000			5.798			-1.160
36302.000			5.799			-1.160
36401.000			5.799			-1.160
36500.000			5.797			-1.159
36601.000			5.797			-1.159
36700.000			5.796			-1.159
36800.000			5.796			-1.159
36901.000			5.796			-1.159
37000.000			5.795			-1.159
37100.000			5.795			-1.159
37202.000			5.795			-1.159
37301.000			5.794			-1.159
37400.000			5.794			-1.159
37501.000			5.794			-1.159
37600.000			5.793			-1.159
37700.000			5.793			-1.159
37801.000			5.793			-1.159
37900.000			5.793			-1.159
38001.000			5.792			-1.158
38102.000			5.792			-1.158
38200.000			5.791			-1.158
38301.000			5.791			-1.158
38400.000			5.791			-1.158
38500.000			5.791			-1.158
38601.000			5.790			-1.158
38701.000			5.789			-1.158
38801.000			5.788			-1.158
38902.000			5.788			-1.158
39000.000			5.788			-1.158
39100.000			5.789			-1.158
39201.000			5.788			-1.158
39300.000			5.788			-1.158
39400.000			5.788			-1.158
39501.000			5.787			-1.157
39601.000			5.787			-1.157
39701.000			5.787			-1.157
39801.000			5.787			-1.157
39900.000			5.787			-1.157
40000.000			5.786			-1.157
40101.000			5.785			-1.157
40200.000			5.785			-1.157
40300.000			5.785			-1.157
40402.000			5.784			-1.157
40501.000			5.784			-1.157
40600.000			5.785			-1.157
40701.000			5.784			-1.157
40800.000			5.783			-1.157
40900.000			5.783			-1.157
41001.000			5.783			-1.157
41100.000			5.783			-1.157
41201.000			5.782			-1.156
41302.000			5.781			-1.156
41400.000			5.781			-1.156
41501.000			5.781			-1.156
41600.000			5.780			-1.156
41700.000			5.779			-1.156
41801.000			5.779			-1.156
41900.000			5.780			-1.156
42001.000			5.779			-1.156
42102.000			5.778			-1.156
42200.000			5.778			-1.156
42300.000			5.778			-1.156
42401.000			5.778			-1.156
42500.000			5.778			-1.156
42600.000			5.778			-1.156
42701.000			5.777			-1.155
42801.000			5.777			-1.155
42901.000			5.776			-1.155
43001.000			5.775			-1.155
43100.000			5.775			-1.155
43200.000			5.775			-1.155
43301.000			5.776			-1.155
43400.000			5.775			-1.155
43500.000			5.775			-1.155
43602.000			5.774			-1.155
43701.000			5.775			-1.155
43800.000			5.774			-1.155
43901.000			5.774			-1.155
44000.000			5.774			-1.155
44100.000			5.773			-1.155
44201.000			5.773			-1.155
44300.000			5.772			-1.154
44401.000			5.772			-1.154
44502.000			5.772			-1.154
44600.000			5.771			-1.154
44701.000			5.771			-1.154
44800.000			5.771			-1.154
44900.000			5.770			-1.154
45001.000			5.770			-1.154
45100.000			5.769			-1.154
45201.000			5.770			-1.154
45302.000			5.770			-1.154
45400.000			5.769			-1.154
45500.000			5.769			-1.154
45601.000			5.768			-1.154
45700.000			5.767			-1.153
45800.000			5.768			-1.154
45901.000			5.768			-1.154
46001.000			5.767			-1.153
46101.000			5.768			-1.154
46201.000			5.768			-1.154
46300.000			5.767			-1.153
46400.000			5.767			-1.153
46501.000			5.767			-1.153
46600.000			5.766			-1.153
46700.000			5.766			-1.153
46801.000			5.766			-1.153
46901.000			5.765			-1.153
47001.000			5.764			-1.153
47101.000			5.764			-1.153
47200.000			5.764			-1.153
47300.000			5.764			-1.153
47401.000			5.763			-1.153
47500.000			5.764			-1.153
47600.000			5.763			-1.153
47702.000			5.763			-1.153
47801.000			5.763			-1.153
47901.000			5.763			-1.153
48000.000			5.761			-1.152
48100.000			5.762			-1.152
48201.000			5.762			-1.152
48300.000			5.761			-1.152
48400.000			5.761			-1.152
48502.000			5.760			-1.152
48601.000			5.759			-1.152
48700.000			5.760			-1.152
48801.000			5.760			-1.152
48900.000			5.760			-1.152
49000.000			5.759			-1.152
49101.000			5.759			-1.152
49200.000			5.758			-1.152
49301.000			5.758			-1.152
49402.000			5.758			-1.152
49500.000			5.758			-1.152
49600.000			5.758			-1.152
49701.000			5.757			-1.151
49800.000			5.758			-1.152
49900.000			5.757			-1.151
50001.000			5.757			-1.151
50101.000			5.756			-1.151
50201.000			5.755			-1.151
50301.000			5.757			-1.151
50400.000			5.756			-1.151
50500.000			5.756			-1.151
50601.000			5.756			-1.151
50700.000			5.754			-1.151
50800.000			5.753			-1.151
50902.000			5.753			-1.151
51001.000			5.754			-1.151
51101.000			5.754			-1.151
51200.000			5.755			-1.151
51300.000			5.753			-1.151
51401.000			5.753			-1.151
51500.000			5.753			-1.151
51600.000			5.753			-1.151
51702.000			5.753			-1.151
51801.000			5.752			-1.150
51900.000			5.753			-1.151
52001.000			5.751			-1.150
52100.000			5.751			-1.150
52200.000			5.751			-1.150
52301.000			5.751			-1.150
52401.000			5.751			-1.150
52501.000			5.750			-1.150
52602.000			5.750			-1.150
52700.000			5.750			-1.150
52800.000			5.750			-1.150
52901.000			5.750			-1.150
53000.000			5.750			-1.150
53100.000			5.749			-1.150
53202.000			5.749			-1.150
53301.000			5.750			-1.150
53401.000			5.747			-1.149
53501.000			5.748			-1.150
53600.000			5.748			-1.150
53700.000			5.748			-1.150
53801.000			5.747			-1.149
53900.000			5.747			-1.149
54000.000			5.747			-1.149
54102.000			5.747			-1.149
54201.000			5.747			-1.149
54301.000			5.747			-1.149
54400.000			5.745			-1.149
54500.000			5.745			-1.149
54601.000			5.744			-1.149
54700.000			5.744			-1.149
54801.000			5.744			-1.149
54902.000			5.744			-1.149
55001.000			5.743			-1.149
55100.000			5.744			-1.149
55201.000			5.744			-1.149
55300.000			5.743			-1.149
55400.000			5.744			-1.149
55501.000			5.744			-1.149
55601.000			5.743			-1.149
55701.000			5.742			-1.148
55801.000			5.742			-1.148
55900.000			5.742			-1.148
56000.000			5.742			-1.148
56101.000			5.743			-1.149
56200.000			5.743			-1.149
56300.000			5.742			-1.148
56402.000			5.741			-1.148
56501.000			5.741			-1.148
56600.000			5.741			-1.148
56701.000			5.739			-1.148
56800.000			5.739			-1.148
56900.000			5.740			-1.148
57001.000			5.740			-1.148
57100.000			5.740			-1.148
57201.000			5.740			-1.148
57302.000			5.740			-1.148
57400.000			5.739			-1.148
57501.000			5.740			-1.148
57600.000			5.739			-1.148
57700.000			5.739			-1.148
57801.000			5.738			-1.148
57900.000			5.738			-1.148
58000.000			5.737			-1.147
58102.000			5.737			-1.147
58201.000			5.737			-1.147
58300.000			5.737			-1.147
58401.000			5.739			-1.148
58500.000			5.737			-1.147
58600.000			5.737			-1.147
58701.000			5.737			-1.147
58800.000			5.736			-1.147
58901.000			5.735			-1.147
59002.000			5.735			-1.147
59100.000			5.736			-1.147
59200.000			5.736			-1.147
59301.000			5.735			-1.147
59400.000			5.734			-1.147
59500.000			5.734			-1.147
59601.000			5.734			-1.147
59701.000			5.734			-1.147
59801.000			5.734			-1.147
59901.000			5.734			-1.147
60000.000			5.733			-1.147
60100.000			5.733			-1.147
60201.000			5.733			-1.147
60300.000			5.733			-1.147
60400.000			5.733			-1.147
60502.000			5.732			-1.146
60601.000			5.731			-1.146
60701.000			5.731			-1.146
60800.000			5.732			-1.146
60900.000			5.731			-1.146
61001.000			5.731			-1.146
61100.000			5.731			-1.146
61200.000			5.730			-1.146
61302.000			5.730			-1.146
61400.000			5.730			-1.146
61500.000			5.731			-1.146
61601.000			5.730			-1.146
61700.000			5.729			-1.146
61800.000			5.729			-1.146
61901.000			5.729			-1.146
62001.000			5.729			-1.146
62101.000			5.728			-1.146
62201.000			5.727			-1.145
62300.000			5.728			-1.146
62400.000			5.728			-1.146
62501.000			5.727			-1.145
62600.000			5.728			-1.146
62700.000			5.728			-1.146
62802.000			5.728			-1.146
62901.000			5.729			-1.146
63000.000			5.727			-1.145
63101.000			5.727			-1.145
63200.000			5.726			-1.145
63300.000			5.725			-1.145
63401.000			5.726			-1.145
63500.000			5.726			-1.145
63601.000			5.726			-1.145
63702.000			5.725			-1.145
63800.000			5.725			-1.145
63901.000			5.726			-1.145
64000.000			5.725			-1.145
64100.000			5.725			-1.145
64201.000			5.725			-1.145
64300.000			5.725			-1.145
64401.000			5.725			-1.145
64502.000			5.724			-1.145
64600.000			5.723			-1.145
64700.000			5.723			-1.145
64801.000			5.724			-1.145
64900.000			5.723			-1.145
65000.000			5.723			-1.145
65101.000			5.723			-1.145
65201.000			5.722			-1.144
65301.000			5.721			-1.144
65401.000			5.722			-1.144
65500.000			5.722			-1.144
65600.000			5.722			-1.144
65701.000			5.722			-1.144
65800.000			5.721			-1.144
65900.000			5.721			-1.144
66002.000			5.720			-1.144
66101.000			5.720			-1.144
66200.000			5.721			-1.144
66301.000			5.722			-1.144
66400.000			5.720			-1.144
66500.000			5.720			-1.144
66601.000			5.719			-1.144
66700.000			5.719			-1.144
66801.000			5.719			-1.144
66902.000			5.720			-1.144
67000.000			5.720			-1.144
67101.000			5.720			-1.144
67200.000			5.719			-1.144
67300.000			5.718			-1.144
67401.000			5.718			-1.144
67500.000			5.718			-1.144
67601.000			5.717			-1.143
67702.000			5.718			-1.144
67800.000			5.718			-1.144
67900.000			5.717			-1.143
68001.000			5.717			-1.143
68100.000			5.716			-1.143
68200.000			5.716			-1.143
68301.000			5.716			-1.143
68401.000			5.716			-1.143
68501.000			5.717			-1.143
68601.000			5.716			-1.143
68700.000			5.716			-1.143
68800.000			5.716			-1.143
68901.000			5.715			-1.143
69000.000			5.714			-1.143
69100.000			5.714			-1.143
69201.000			5.715			-1.143
69301.000			5.715			-1.143
69401.000			5.715			-1.143
69501.000			5.714			-1.143
69600.000			5.714			-1.143
69700.000			5.713			-1.143
69801.000			5.712			-1.142
69900.000			5.713			-1.143
70000.000			5.713			-1.143
70102.000			5.711			-1.142
70201.000			5.713			-1.143
70301.000			5.712			-1.142
70400.000			5.712			-1.142
70500.000			5.712			-1.142
70601.000			5.712			-1.142
70700.000			5.711			-1.142
70800.000			5.711			-1.142
70902.000			5.712			-1.142
71001.000			5.711			-1.142
71100.000			5.711			-1.142
71201.000			5.711			-1.142
71300.000			5.710			-1.142
71400.000			5.710			-1.142
71501.000			5.710			-1.142
71601.000			5.711			-1.142
71701.000			5.711			-1.142
71801.000			5.710			-1.142
71900.000			5.710			-1.142
72000.000			5.710			-1.142
72101.000			5.709			-1.142
72200.000			5.709			-1.142
72300.000			5.708			-1.142
72402.000			5.709			-1.142
72501.000			5.708			-1.142
72600.000			5.708			-1.142
72701.000			5.709			-1.142
72800.000			5.708			-1.142
72900.000			5.707			-1.141
73001.000			5.707			-1.141
73100.000			5.708			-1.142
73201.000			5.707			-1.141
73302.000			5.707			-1.141
73400.000			5.707			-1.141
73501.000			5.707			-1.141
73600.000			5.706			-1.141
73700.000			5.706			-1.141
73801.000			5.706			-1.141
73900.000			5.705			-1.141
