# Acquired on 20/12/2023 11:11:05 
# SPIDER: Creep_3mm_0771453C
# CREEP MEASUREMENT

# time [ms]		force [N]		stiffness [N/mm]
0.000			-11.240			-3.747
100.000			-13.173			-4.391
201.000			-14.147			-4.716
300.000			-14.353			-4.784
400.000			-14.317			-4.772
502.000			-14.290			-4.763
600.000			-14.268			-4.756
700.000			-14.247			-4.749
801.000			-14.229			-4.743
900.000			-14.213			-4.738
1000.000			-14.200			-4.733
1101.000			-14.174			-4.725
1201.000			-14.162			-4.721
1301.000			-14.152			-4.717
1401.000			-14.142			-4.714
1500.000			-14.133			-4.711
1600.000			-14.124			-4.708
1701.000			-14.116			-4.705
1800.000			-14.101			-4.700
1901.000			-14.093			-4.698
2002.000			-14.087			-4.696
2100.000			-14.080			-4.693
2200.000			-14.073			-4.691
2301.000			-14.068			-4.689
2400.000			-14.061			-4.687
2500.000			-14.050			-4.683
2601.000			-14.045			-4.682
2701.000			-14.041			-4.680
2802.000			-14.035			-4.678
2900.000			-14.030			-4.677
3000.000			-14.026			-4.675
3101.000			-14.021			-4.674
3200.000			-14.017			-4.672
3300.000			-14.007			-4.669
3402.000			-14.003			-4.668
3501.000			-14.000			-4.667
3600.000			-13.996			-4.665
3701.000			-13.992			-4.664
3800.000			-13.989			-4.663
3900.000			-13.986			-4.662
4001.000			-13.978			-4.659
4100.000			-13.974			-4.658
4201.000			-13.970			-4.657
4302.000			-13.967			-4.656
4400.000			-13.965			-4.655
4500.000			-13.961			-4.654
4601.000			-13.958			-4.653
4700.000			-13.952			-4.651
4800.000			-13.950			-4.650
4901.000			-13.947			-4.649
5001.000			-13.943			-4.648
5101.000			-13.940			-4.647
5201.000			-13.938			-4.646
5300.000			-13.936			-4.645
5400.000			-13.933			-4.644
5501.000			-13.928			-4.643
5600.000			-13.925			-4.642
5701.000			-13.922			-4.641
5802.000			-13.920			-4.640
5900.000			-13.918			-4.639
6001.000			-13.915			-4.638
6100.000			-13.913			-4.638
6200.000			-13.909			-4.636
6301.000			-13.906			-4.635
6400.000			-13.904			-4.635
6501.000			-13.903			-4.634
6602.000			-13.900			-4.633
6700.000			-13.897			-4.632
6800.000			-13.896			-4.632
6901.000			-13.892			-4.631
7000.000			-13.890			-4.630
7100.000			-13.888			-4.629
7201.000			-13.885			-4.628
7301.000			-13.883			-4.628
7401.000			-13.882			-4.627
7501.000			-13.879			-4.626
7600.000			-13.877			-4.626
7700.000			-13.875			-4.625
7801.000			-13.873			-4.624
7900.000			-13.870			-4.623
8000.000			-13.869			-4.623
8102.000			-13.868			-4.623
8201.000			-13.866			-4.622
8300.000			-13.864			-4.621
8401.000			-13.860			-4.620
8500.000			-13.857			-4.619
8600.000			-13.856			-4.619
8701.000			-13.855			-4.618
8800.000			-13.854			-4.618
8901.000			-13.852			-4.617
9002.000			-13.851			-4.617
9100.000			-13.849			-4.616
9201.000			-13.845			-4.615
9300.000			-13.845			-4.615
9400.000			-13.844			-4.615
9501.000			-13.842			-4.614
9601.000			-13.840			-4.613
9701.000			-13.837			-4.612
9801.000			-13.836			-4.612
9900.000			-13.834			-4.611
10000.000			-13.832			-4.611
10101.000			-13.831			-4.610
10200.000			-13.829			-4.610
10300.000			-13.827			-4.609
10402.000			-13.826			-4.609
10501.000			-13.825			-4.608
10600.000			-13.823			-4.608
10701.000			-13.822			-4.607
10800.000			-13.821			-4.607
10900.000			-13.819			-4.606
11001.000			-13.818			-4.606
11100.000			-13.816			-4.605
11201.000			-13.814			-4.605
11302.000			-13.811			-4.604
11400.000			-13.811			-4.604
11500.000			-13.811			-4.604
11601.000			-13.808			-4.603
11700.000			-13.807			-4.602
11800.000			-13.806			-4.602
11901.000			-13.805			-4.602
12001.000			-13.803			-4.601
12101.000			-13.800			-4.600
12201.000			-13.799			-4.600
12300.000			-13.799			-4.600
12401.000			-13.798			-4.599
12500.000			-13.796			-4.599
12600.000			-13.795			-4.598
12701.000			-13.794			-4.598
12801.000			-13.791			-4.597
12901.000			-13.790			-4.597
13001.000			-13.789			-4.596
13100.000			-13.788			-4.596
13200.000			-13.787			-4.596
13301.000			-13.786			-4.595
13400.000			-13.785			-4.595
13500.000			-13.785			-4.595
13602.000			-13.783			-4.594
13701.000			-13.781			-4.594
13800.000			-13.779			-4.593
13901.000			-13.778			-4.593
14000.000			-13.778			-4.593
14100.000			-13.777			-4.592
14201.000			-13.776			-4.592
14300.000			-13.774			-4.591
14400.000			-13.772			-4.591
14502.000			-13.770			-4.590
14601.000			-13.770			-4.590
14700.000			-13.770			-4.590
14801.000			-13.768			-4.589
14900.000			-13.768			-4.589
15000.000			-13.765			-4.588
15101.000			-13.763			-4.588
15201.000			-13.763			-4.588
15301.000			-13.763			-4.588
15402.000			-13.762			-4.587
15500.000			-13.761			-4.587
15601.000			-13.760			-4.587
15700.000			-13.759			-4.586
15800.000			-13.758			-4.586
15901.000			-13.756			-4.585
16000.000			-13.756			-4.585
16101.000			-13.755			-4.585
16202.000			-13.754			-4.585
16300.000			-13.753			-4.584
16400.000			-13.751			-4.584
16501.000			-13.750			-4.583
16600.000			-13.749			-4.583
16700.000			-13.748			-4.583
16801.000			-13.747			-4.582
16901.000			-13.746			-4.582
17001.000			-13.745			-4.582
17101.000			-13.745			-4.582
17200.000			-13.743			-4.581
17300.000			-13.742			-4.581
17401.000			-13.741			-4.580
17500.000			-13.740			-4.580
17600.000			-13.739			-4.580
17702.000			-13.738			-4.579
17801.000			-13.738			-4.579
17900.000			-13.737			-4.579
18001.000			-13.735			-4.578
18100.000			-13.734			-4.578
18200.000			-13.734			-4.578
18301.000			-13.733			-4.578
18400.000			-13.732			-4.577
18501.000			-13.732			-4.577
18602.000			-13.731			-4.577
18700.000			-13.729			-4.576
18801.000			-13.728			-4.576
18900.000			-13.728			-4.576
19000.000			-13.728			-4.576
19101.000			-13.726			-4.575
19200.000			-13.726			-4.575
19301.000			-13.724			-4.575
19402.000			-13.722			-4.574
19500.000			-13.722			-4.574
19600.000			-13.720			-4.573
19701.000			-13.720			-4.573
19800.000			-13.721			-4.574
19900.000			-13.721			-4.574
20001.000			-13.718			-4.573
20101.000			-13.717			-4.572
20201.000			-13.717			-4.572
20301.000			-13.716			-4.572
20400.000			-13.716			-4.572
20500.000			-13.715			-4.572
20601.000			-13.713			-4.571
20700.000			-13.712			-4.571
20800.000			-13.711			-4.570
20902.000			-13.711			-4.570
21001.000			-13.710			-4.570
21100.000			-13.710			-4.570
21201.000			-13.709			-4.570
21300.000			-13.709			-4.570
21400.000			-13.708			-4.569
21501.000			-13.707			-4.569
21601.000			-13.705			-4.568
21701.000			-13.705			-4.568
21801.000			-13.704			-4.568
21900.000			-13.703			-4.568
22001.000			-13.703			-4.568
22100.000			-13.703			-4.568
22200.000			-13.702			-4.567
22301.000			-13.702			-4.567
22401.000			-13.699			-4.566
22501.000			-13.697			-4.566
22601.000			-13.697			-4.566
22700.000			-13.698			-4.566
22800.000			-13.696			-4.565
22901.000			-13.697			-4.566
23000.000			-13.696			-4.565
23100.000			-13.694			-4.565
23202.000			-13.693			-4.564
23301.000			-13.693			-4.564
23400.000			-13.692			-4.564
23501.000			-13.690			-4.563
23600.000			-13.690			-4.563
23700.000			-13.689			-4.563
23801.000			-13.689			-4.563
23900.000			-13.689			-4.563
24001.000			-13.688			-4.563
24102.000			-13.687			-4.562
24201.000			-13.686			-4.562
24300.000			-13.686			-4.562
24401.000			-13.685			-4.562
24500.000			-13.685			-4.562
24600.000			-13.684			-4.561
24701.000			-13.684			-4.561
24801.000			-13.683			-4.561
24901.000			-13.682			-4.561
25002.000			-13.681			-4.560
25100.000			-13.680			-4.560
25201.000			-13.680			-4.560
25300.000			-13.678			-4.559
25400.000			-13.678			-4.559
25501.000			-13.677			-4.559
25600.000			-13.677			-4.559
25701.000			-13.677			-4.559
25802.000			-13.676			-4.559
25900.000			-13.676			-4.559
26000.000			-13.674			-4.558
26101.000			-13.674			-4.558
26200.000			-13.674			-4.558
26300.000			-13.673			-4.558
26401.000			-13.673			-4.558
26501.000			-13.672			-4.557
26601.000			-13.671			-4.557
26701.000			-13.671			-4.557
26800.000			-13.669			-4.556
26900.000			-13.669			-4.556
27001.000			-13.669			-4.556
27100.000			-13.667			-4.556
27200.000			-13.666			-4.555
27302.000			-13.666			-4.555
27401.000			-13.665			-4.555
27500.000			-13.664			-4.555
27601.000			-13.664			-4.555
27700.000			-13.665			-4.555
27800.000			-13.664			-4.555
27901.000			-13.663			-4.554
28000.000			-13.662			-4.554
28101.000			-13.661			-4.554
28202.000			-13.661			-4.554
28300.000			-13.660			-4.553
28401.000			-13.660			-4.553
28500.000			-13.660			-4.553
28600.000			-13.660			-4.553
28701.000			-13.659			-4.553
28800.000			-13.658			-4.553
28901.000			-13.657			-4.552
29002.000			-13.656			-4.552
29100.000			-13.656			-4.552
29200.000			-13.655			-4.552
29301.000			-13.656			-4.552
29400.000			-13.654			-4.551
29500.000			-13.653			-4.551
29601.000			-13.652			-4.551
29701.000			-13.651			-4.550
29801.000			-13.651			-4.550
29901.000			-13.651			-4.550
30000.000			-13.651			-4.550
30100.000			-13.651			-4.550
30201.000			-13.650			-4.550
30300.000			-13.649			-4.550
30400.000			-13.648			-4.549
30502.000			-13.647			-4.549
30601.000			-13.646			-4.549
30700.000			-13.646			-4.549
30801.000			-13.647			-4.549
30900.000			-13.647			-4.549
31000.000			-13.646			-4.549
31101.000			-13.644			-4.548
31200.000			-13.644			-4.548
31301.000			-13.643			-4.548
31402.000			-13.642			-4.547
31500.000			-13.642			-4.547
31601.000			-13.643			-4.548
31700.000			-13.642			-4.547
31800.000			-13.642			-4.547
31901.000			-13.640			-4.547
32000.000			-13.640			-4.547
32101.000			-13.640			-4.547
32202.000			-13.639			-4.546
32300.000			-13.638			-4.546
32400.000			-13.638			-4.546
32501.000			-13.638			-4.546
32600.000			-13.638			-4.546
32700.000			-13.636			-4.545
32801.000			-13.637			-4.546
32901.000			-13.636			-4.545
33001.000			-13.635			-4.545
33101.000			-13.634			-4.545
33200.000			-13.634			-4.545
33300.000			-13.634			-4.545
33401.000			-13.632			-4.544
33500.000			-13.632			-4.544
33601.000			-13.631			-4.544
33702.000			-13.631			-4.544
33800.000			-13.631			-4.544
33900.000			-13.630			-4.543
34001.000			-13.630			-4.543
34100.000			-13.628			-4.543
34200.000			-13.628			-4.543
34301.000			-13.627			-4.542
34401.000			-13.627			-4.542
34501.000			-13.626			-4.542
34601.000			-13.626			-4.542
34700.000			-13.626			-4.542
34801.000			-13.626			-4.542
34900.000			-13.625			-4.542
35000.000			-13.625			-4.542
35101.000			-13.624			-4.541
35201.000			-13.625			-4.542
35301.000			-13.624			-4.541
35401.000			-13.623			-4.541
35500.000			-13.623			-4.541
35600.000			-13.622			-4.541
35701.000			-13.622			-4.541
35800.000			-13.622			-4.541
35900.000			-13.622			-4.541
36002.000			-13.622			-4.541
36101.000			-13.621			-4.540
36200.000			-13.620			-4.540
36301.000			-13.619			-4.540
36400.000			-13.619			-4.540
36500.000			-13.618			-4.539
36601.000			-13.618			-4.539
36700.000			-13.618			-4.539
36801.000			-13.618			-4.539
36902.000			-13.617			-4.539
37000.000			-13.616			-4.539
37100.000			-13.616			-4.539
37201.000			-13.615			-4.538
37300.000			-13.615			-4.538
37400.000			-13.615			-4.538
37501.000			-13.613			-4.538
37601.000			-13.613			-4.538
37701.000			-13.614			-4.538
37801.000			-13.612			-4.537
37900.000			-13.612			-4.537
38001.000			-13.612			-4.537
38100.000			-13.611			-4.537
38200.000			-13.611			-4.537
38301.000			-13.611			-4.537
38401.000			-13.610			-4.537
38501.000			-13.608			-4.536
38601.000			-13.608			-4.536
38700.000			-13.609			-4.536
38800.000			-13.608			-4.536
38901.000			-13.607			-4.536
39000.000			-13.607			-4.536
39100.000			-13.607			-4.536
39202.000			-13.606			-4.535
39301.000			-13.606			-4.535
39400.000			-13.605			-4.535
39501.000			-13.605			-4.535
39600.000			-13.606			-4.535
39700.000			-13.604			-4.535
39801.000			-13.604			-4.535
39900.000			-13.604			-4.535
40001.000			-13.603			-4.534
40102.000			-13.602			-4.534
40200.000			-13.602			-4.534
40300.000			-13.602			-4.534
40401.000			-13.602			-4.534
40500.000			-13.601			-4.534
40600.000			-13.600			-4.533
40702.000			-13.600			-4.533
40801.000			-13.600			-4.533
40900.000			-13.599			-4.533
41001.000			-13.599			-4.533
41100.000			-13.599			-4.533
41201.000			-13.598			-4.533
41300.000			-13.598			-4.533
41400.000			-13.597			-4.532
41502.000			-13.597			-4.532
41601.000			-13.597			-4.532
41701.000			-13.597			-4.532
41801.000			-13.596			-4.532
41900.000			-13.595			-4.532
42000.000			-13.594			-4.531
42101.000			-13.595			-4.532
42200.000			-13.593			-4.531
42301.000			-13.593			-4.531
42402.000			-13.593			-4.531
42500.000			-13.593			-4.531
42600.000			-13.592			-4.531
42701.000			-13.591			-4.530
42800.000			-13.591			-4.530
42900.000			-13.592			-4.531
43001.000			-13.591			-4.530
43101.000			-13.589			-4.530
43201.000			-13.589			-4.530
43301.000			-13.590			-4.530
43400.000			-13.590			-4.530
43500.000			-13.589			-4.530
43601.000			-13.588			-4.529
43700.000			-13.588			-4.529
43800.000			-13.587			-4.529
43902.000			-13.586			-4.529
44001.000			-13.587			-4.529
44100.000			-13.587			-4.529
44201.000			-13.587			-4.529
44300.000			-13.586			-4.529
44401.000			-13.585			-4.528
44500.000			-13.583			-4.528
44600.000			-13.583			-4.528
44702.000			-13.585			-4.528
44801.000			-13.584			-4.528
44901.000			-13.584			-4.528
45001.000			-13.583			-4.528
45100.000			-13.583			-4.528
45200.000			-13.583			-4.528
45301.000			-13.582			-4.527
45400.000			-13.582			-4.527
45501.000			-13.582			-4.527
45602.000			-13.582			-4.527
45701.000			-13.581			-4.527
45800.000			-13.581			-4.527
45901.000			-13.580			-4.527
46000.000			-13.580			-4.527
46100.000			-13.579			-4.526
46201.000			-13.578			-4.526
46300.000			-13.578			-4.526
46401.000			-13.577			-4.526
46502.000			-13.578			-4.526
46600.000			-13.577			-4.526
46700.000			-13.576			-4.525
46801.000			-13.576			-4.525
46900.000			-13.577			-4.526
47000.000			-13.576			-4.525
47101.000			-13.576			-4.525
47201.000			-13.576			-4.525
47301.000			-13.575			-4.525
47401.000			-13.574			-4.525
47500.000			-13.574			-4.525
47601.000			-13.574			-4.525
47700.000			-13.573			-4.524
47800.000			-13.572			-4.524
47901.000			-13.572			-4.524
48001.000			-13.572			-4.524
48101.000			-13.572			-4.524
48201.000			-13.572			-4.524
48300.000			-13.572			-4.524
48400.000			-13.572			-4.524
48501.000			-13.571			-4.524
48600.000			-13.571			-4.524
48700.000			-13.571			-4.524
48802.000			-13.570			-4.523
48901.000			-13.569			-4.523
49000.000			-13.569			-4.523
49101.000			-13.569			-4.523
49200.000			-13.569			-4.523
49300.000			-13.568			-4.523
49401.000			-13.568			-4.523
49500.000			-13.567			-4.522
49601.000			-13.566			-4.522
49702.000			-13.566			-4.522
49801.000			-13.566			-4.522
49900.000			-13.565			-4.522
50001.000			-13.566			-4.522
50100.000			-13.566			-4.522
50200.000			-13.566			-4.522
50301.000			-13.566			-4.522
50401.000			-13.564			-4.521
50501.000			-13.564			-4.521
50602.000			-13.565			-4.522
50700.000			-13.564			-4.521
50801.000			-13.564			-4.521
50900.000			-13.563			-4.521
51000.000			-13.562			-4.521
51101.000			-13.562			-4.521
51201.000			-13.562			-4.521
51301.000			-13.561			-4.520
51401.000			-13.560			-4.520
51500.000			-13.560			-4.520
51600.000			-13.560			-4.520
51701.000			-13.560			-4.520
51800.000			-13.559			-4.520
51900.000			-13.559			-4.520
52002.000			-13.559			-4.520
52101.000			-13.559			-4.520
52200.000			-13.558			-4.519
52301.000			-13.557			-4.519
52400.000			-13.558			-4.519
52500.000			-13.557			-4.519
52601.000			-13.556			-4.519
52700.000			-13.557			-4.519
52801.000			-13.558			-4.519
52902.000			-13.557			-4.519
53001.000			-13.556			-4.519
53100.000			-13.555			-4.518
53201.000			-13.555			-4.518
53300.000			-13.556			-4.519
53400.000			-13.555			-4.518
53501.000			-13.554			-4.518
53601.000			-13.553			-4.518
53701.000			-13.553			-4.518
53801.000			-13.554			-4.518
53900.000			-13.553			-4.518
54001.000			-13.552			-4.517
54100.000			-13.551			-4.517
54200.000			-13.552			-4.517
54301.000			-13.552			-4.517
54401.000			-13.551			-4.517
54501.000			-13.551			-4.517
54602.000			-13.551			-4.517
54700.000			-13.550			-4.517
54800.000			-13.549			-4.516
54901.000			-13.550			-4.517
55000.000			-13.550			-4.517
55100.000			-13.550			-4.517
55202.000			-13.549			-4.516
55301.000			-13.549			-4.516
55401.000			-13.548			-4.516
55501.000			-13.547			-4.516
55600.000			-13.547			-4.516
55700.000			-13.548			-4.516
55801.000			-13.548			-4.516
55900.000			-13.547			-4.516
56000.000			-13.546			-4.515
56102.000			-13.547			-4.516
56201.000			-13.546			-4.515
56300.000			-13.545			-4.515
56401.000			-13.545			-4.515
56500.000			-13.545			-4.515
56600.000			-13.544			-4.515
56701.000			-13.544			-4.515
56800.000			-13.544			-4.515
56901.000			-13.545			-4.515
57002.000			-13.544			-4.515
57100.000			-13.543			-4.514
57201.000			-13.543			-4.514
57300.000			-13.542			-4.514
57400.000			-13.542			-4.514
57501.000			-13.543			-4.514
57600.000			-13.542			-4.514
57701.000			-13.542			-4.514
57802.000			-13.541			-4.514
57900.000			-13.541			-4.514
58000.000			-13.540			-4.513
58101.000			-13.540			-4.513
58200.000			-13.540			-4.513
58300.000			-13.540			-4.513
58401.000			-13.539			-4.513
58501.000			-13.539			-4.513
58601.000			-13.540			-4.513
58701.000			-13.539			-4.513
58800.000			-13.538			-4.513
58900.000			-13.537			-4.512
59001.000			-13.537			-4.512
59100.000			-13.537			-4.512
59200.000			-13.538			-4.513
59302.000			-13.537			-4.512
59401.000			-13.536			-4.512
59500.000			-13.536			-4.512
59601.000			-13.536			-4.512
59700.000			-13.536			-4.512
59800.000			-13.537			-4.512
59901.000			-13.536			-4.512
60000.000			-13.535			-4.512
60101.000			-13.534			-4.511
60202.000			-13.533			-4.511
60300.000			-13.533			-4.511
60401.000			-13.533			-4.511
60500.000			-13.533			-4.511
60600.000			-13.533			-4.511
60701.000			-13.533			-4.511
60800.000			-13.532			-4.511
60901.000			-13.532			-4.511
61002.000			-13.531			-4.510
61100.000			-13.531			-4.510
61200.000			-13.530			-4.510
61301.000			-13.531			-4.510
61400.000			-13.531			-4.510
61500.000			-13.530			-4.510
61602.000			-13.530			-4.510
61701.000			-13.531			-4.510
61801.000			-13.531			-4.510
61901.000			-13.530			-4.510
62000.000			-13.528			-4.509
62100.000			-13.528			-4.509
62201.000			-13.528			-4.509
62300.000			-13.528			-4.509
62401.000			-13.527			-4.509
62502.000			-13.528			-4.509
62600.000			-13.528			-4.509
62700.000			-13.528			-4.509
62801.000			-13.527			-4.509
62900.000			-13.526			-4.509
63000.000			-13.526			-4.509
63101.000			-13.525			-4.508
63201.000			-13.526			-4.509
63301.000			-13.526			-4.509
63401.000			-13.524			-4.508
63500.000			-13.525			-4.508
63601.000			-13.524			-4.508
63700.000			-13.523			-4.508
63800.000			-13.524			-4.508
63901.000			-13.523			-4.508
64001.000			-13.523			-4.508
64101.000			-13.523			-4.508
64201.000			-13.523			-4.508
64300.000			-13.524			-4.508
64400.000			-13.522			-4.507
64501.000			-13.522			-4.507
64600.000			-13.521			-4.507
64700.000			-13.521			-4.507
64802.000			-13.521			-4.507
64901.000			-13.521			-4.507
65000.000			-13.520			-4.507
65101.000			-13.521			-4.507
65200.000			-13.519			-4.506
65300.000			-13.519			-4.506
65401.000			-13.521			-4.507
65500.000			-13.521			-4.507
65601.000			-13.519			-4.506
65702.000			-13.520			-4.507
65801.000			-13.518			-4.506
65900.000			-13.518			-4.506
66001.000			-13.519			-4.506
66100.000			-13.518			-4.506
66200.000			-13.518			-4.506
66301.000			-13.517			-4.506
66401.000			-13.516			-4.505
66501.000			-13.516			-4.505
66602.000			-13.517			-4.506
66700.000			-13.517			-4.506
66801.000			-13.517			-4.506
66900.000			-13.515			-4.505
67000.000			-13.515			-4.505
67101.000			-13.516			-4.505
67200.000			-13.516			-4.505
67301.000			-13.515			-4.505
67402.000			-13.516			-4.505
67500.000			-13.515			-4.505
67600.000			-13.514			-4.505
67701.000			-13.513			-4.504
67800.000			-13.513			-4.504
67900.000			-13.513			-4.504
68001.000			-13.514			-4.505
68101.000			-13.514			-4.505
68201.000			-13.513			-4.504
68301.000			-13.512			-4.504
68400.000			-13.512			-4.504
68500.000			-13.512			-4.504
68601.000			-13.511			-4.504
68700.000			-13.512			-4.504
68800.000			-13.512			-4.504
