# Acquired on 10/01/2024 10:46:49 
# SPIDER: Creep_-10mm_07714532C-2
# CREEP MEASUREMENT

# time [ms]		force [N]		stiffness [N/mm]
0.000			30.406			-3.041
101.000			31.485			-3.148
201.000			31.808			-3.181
301.000			31.686			-3.169
401.000			31.536			-3.154
500.000			31.427			-3.143
600.000			31.259			-3.126
701.000			31.192			-3.119
800.000			31.131			-3.113
900.000			31.076			-3.108
1002.000			31.026			-3.103
1101.000			30.981			-3.098
1200.000			30.938			-3.094
1301.000			30.860			-3.086
1400.000			30.825			-3.083
1500.000			30.792			-3.079
1601.000			30.761			-3.076
1701.000			30.732			-3.073
1801.000			30.703			-3.070
1901.000			30.677			-3.068
2000.000			30.651			-3.065
2100.000			30.603			-3.060
2201.000			30.580			-3.058
2300.000			30.558			-3.056
2400.000			30.536			-3.054
2502.000			30.514			-3.051
2600.000			30.494			-3.049
2700.000			30.475			-3.048
2801.000			30.439			-3.044
2900.000			30.422			-3.042
3001.000			30.405			-3.040
3100.000			30.388			-3.039
3201.000			30.372			-3.037
3302.000			30.357			-3.036
3400.000			30.340			-3.034
3500.000			30.311			-3.031
3601.000			30.297			-3.030
3700.000			30.283			-3.028
3800.000			30.269			-3.027
3902.000			30.256			-3.026
4001.000			30.243			-3.024
4100.000			30.231			-3.023
4201.000			30.217			-3.022
4300.000			30.194			-3.019
4400.000			30.181			-3.018
4501.000			30.170			-3.017
4600.000			30.159			-3.016
4701.000			30.148			-3.015
4802.000			30.137			-3.014
4900.000			30.126			-3.013
5000.000			30.106			-3.011
5101.000			30.095			-3.010
5200.000			30.084			-3.008
5300.000			30.074			-3.007
5402.000			30.064			-3.006
5501.000			30.054			-3.005
5600.000			30.046			-3.005
5701.000			30.026			-3.003
5800.000			30.018			-3.002
5900.000			30.010			-3.001
6001.000			30.001			-3.000
6100.000			29.992			-2.999
6202.000			29.983			-2.998
6301.000			29.976			-2.998
6400.000			29.960			-2.996
6501.000			29.951			-2.995
6600.000			29.942			-2.994
6700.000			29.934			-2.993
6801.000			29.926			-2.993
6900.000			29.918			-2.992
7001.000			29.911			-2.991
7102.000			29.905			-2.990
7200.000			29.890			-2.989
7300.000			29.882			-2.988
7401.000			29.874			-2.987
7500.000			29.867			-2.987
7600.000			29.861			-2.986
7701.000			29.855			-2.985
7801.000			29.848			-2.985
7901.000			29.833			-2.983
8001.000			29.827			-2.983
8100.000			29.820			-2.982
8200.000			29.815			-2.982
8301.000			29.808			-2.981
8400.000			29.802			-2.980
8500.000			29.795			-2.980
8602.000			29.783			-2.978
8701.000			29.776			-2.978
8800.000			29.771			-2.977
8901.000			29.766			-2.977
9000.000			29.759			-2.976
9100.000			29.754			-2.975
9201.000			29.747			-2.975
9300.000			29.741			-2.974
9402.000			29.730			-2.973
9501.000			29.724			-2.972
9600.000			29.719			-2.972
9701.000			29.714			-2.971
9800.000			29.709			-2.971
9900.000			29.703			-2.970
10001.000			29.696			-2.970
10100.000			29.685			-2.969
10201.000			29.681			-2.968
10302.000			29.675			-2.968
10400.000			29.669			-2.967
10500.000			29.665			-2.967
10601.000			29.661			-2.966
10700.000			29.655			-2.966
10800.000			29.646			-2.965
10901.000			29.640			-2.964
11001.000			29.636			-2.964
11101.000			29.631			-2.963
11201.000			29.626			-2.963
11300.000			29.621			-2.962
11400.000			29.617			-2.962
11501.000			29.612			-2.961
11600.000			29.602			-2.960
11700.000			29.599			-2.960
11802.000			29.594			-2.959
11901.000			29.590			-2.959
12000.000			29.584			-2.958
12101.000			29.580			-2.958
12200.000			29.576			-2.958
12300.000			29.566			-2.957
12401.000			29.562			-2.956
12500.000			29.558			-2.956
12602.000			29.553			-2.955
12701.000			29.550			-2.955
12800.000			29.545			-2.955
12901.000			29.541			-2.954
13000.000			29.533			-2.953
13100.000			29.529			-2.953
13201.000			29.525			-2.953
13300.000			29.521			-2.952
13401.000			29.516			-2.952
13502.000			29.512			-2.951
13600.000			29.508			-2.951
13700.000			29.503			-2.950
13801.000			29.497			-2.950
13900.000			29.492			-2.949
14000.000			29.489			-2.949
14101.000			29.486			-2.949
14201.000			29.483			-2.948
14301.000			29.479			-2.948
14401.000			29.474			-2.947
14500.000			29.466			-2.947
14600.000			29.463			-2.946
14701.000			29.459			-2.946
14800.000			29.456			-2.946
14900.000			29.453			-2.945
15002.000			29.450			-2.945
15101.000			29.446			-2.945
15200.000			29.437			-2.944
15301.000			29.434			-2.943
15400.000			29.432			-2.943
15500.000			29.427			-2.943
15601.000			29.424			-2.942
15700.000			29.420			-2.942
15802.000			29.417			-2.942
15901.000			29.413			-2.941
16000.000			29.406			-2.941
16101.000			29.403			-2.940
16200.000			29.400			-2.940
16300.000			29.398			-2.940
16401.000			29.394			-2.939
16500.000			29.391			-2.939
16601.000			29.389			-2.939
16702.000			29.381			-2.938
16800.000			29.377			-2.938
16900.000			29.375			-2.937
17001.000			29.371			-2.937
17100.000			29.368			-2.937
17200.000			29.365			-2.937
17301.000			29.362			-2.936
17401.000			29.355			-2.935
17501.000			29.351			-2.935
17601.000			29.348			-2.935
17700.000			29.345			-2.935
17800.000			29.343			-2.934
17901.000			29.340			-2.934
18000.000			29.337			-2.934
18100.000			29.331			-2.933
18202.000			29.328			-2.933
18301.000			29.325			-2.933
18401.000			29.322			-2.932
18501.000			29.319			-2.932
18600.000			29.315			-2.932
18700.000			29.313			-2.931
18801.000			29.310			-2.931
18900.000			29.304			-2.930
19001.000			29.302			-2.930
19101.000			29.299			-2.930
19201.000			29.296			-2.930
19301.000			29.294			-2.929
19400.000			29.291			-2.929
19500.000			29.288			-2.929
19601.000			29.283			-2.928
19700.000			29.280			-2.928
19800.000			29.278			-2.928
19902.000			29.276			-2.928
20001.000			29.273			-2.927
20100.000			29.271			-2.927
20201.000			29.267			-2.927
20300.000			29.262			-2.926
20400.000			29.259			-2.926
20501.000			29.257			-2.926
20601.000			29.253			-2.925
20701.000			29.251			-2.925
20802.000			29.249			-2.925
20900.000			29.245			-2.925
21000.000			29.243			-2.924
21101.000			29.238			-2.924
21200.000			29.234			-2.923
21300.000			29.231			-2.923
21402.000			29.229			-2.923
21501.000			29.226			-2.923
21600.000			29.223			-2.922
21701.000			29.222			-2.922
21800.000			29.217			-2.922
21900.000			29.214			-2.921
22001.000			29.211			-2.921
22100.000			29.209			-2.921
22202.000			29.207			-2.921
22301.000			29.205			-2.920
22400.000			29.201			-2.920
22501.000			29.197			-2.920
22600.000			29.195			-2.919
22700.000			29.192			-2.919
22801.000			29.189			-2.919
22900.000			29.187			-2.919
23001.000			29.186			-2.919
23102.000			29.183			-2.918
23200.000			29.180			-2.918
23300.000			29.176			-2.918
23401.000			29.174			-2.917
23500.000			29.172			-2.917
23600.000			29.169			-2.917
23701.000			29.166			-2.917
23801.000			29.164			-2.916
23901.000			29.162			-2.916
24001.000			29.157			-2.916
24100.000			29.155			-2.916
24200.000			29.153			-2.915
24301.000			29.152			-2.915
24400.000			29.149			-2.915
24500.000			29.147			-2.915
24602.000			29.145			-2.914
24701.000			29.139			-2.914
24800.000			29.136			-2.914
24901.000			29.134			-2.913
25000.000			29.132			-2.913
25100.000			29.131			-2.913
25201.000			29.129			-2.913
25300.000			29.126			-2.913
25402.000			29.121			-2.912
25501.000			29.120			-2.912
25601.000			29.117			-2.912
25701.000			29.115			-2.912
25800.000			29.113			-2.911
25900.000			29.111			-2.911
26001.000			29.109			-2.911
26100.000			29.106			-2.911
26201.000			29.101			-2.910
26302.000			29.100			-2.910
26400.000			29.099			-2.910
26500.000			29.098			-2.910
26601.000			29.095			-2.909
26700.000			29.094			-2.909
26800.000			29.091			-2.909
26901.000			29.087			-2.909
27001.000			29.085			-2.908
27101.000			29.083			-2.908
27202.000			29.081			-2.908
27300.000			29.079			-2.908
27400.000			29.077			-2.908
27501.000			29.076			-2.908
27600.000			29.074			-2.907
27700.000			29.072			-2.907
27801.000			29.069			-2.907
27901.000			29.066			-2.907
28001.000			29.064			-2.906
28101.000			29.063			-2.906
28200.000			29.061			-2.906
28300.000			29.058			-2.906
28401.000			29.054			-2.905
28500.000			29.053			-2.905
28601.000			29.051			-2.905
28701.000			29.050			-2.905
28801.000			29.046			-2.905
28901.000			29.045			-2.904
29000.000			29.044			-2.904
29100.000			29.040			-2.904
29201.000			29.038			-2.904
29300.000			29.035			-2.903
29400.000			29.033			-2.903
29502.000			29.032			-2.903
29601.000			29.030			-2.903
29700.000			29.028			-2.903
29801.000			29.025			-2.902
29900.000			29.024			-2.902
30000.000			29.022			-2.902
30101.000			29.020			-2.902
30200.000			29.018			-2.902
30301.000			29.016			-2.902
30402.000			29.013			-2.901
30500.000			29.012			-2.901
30600.000			29.008			-2.901
30701.000			29.006			-2.901
30800.000			29.004			-2.900
30900.000			29.004			-2.900
31002.000			29.001			-2.900
31101.000			29.000			-2.900
31201.000			28.997			-2.900
31301.000			28.993			-2.899
31400.000			28.991			-2.899
31500.000			28.990			-2.899
31601.000			28.989			-2.899
31700.000			28.987			-2.899
31801.000			28.986			-2.899
31901.000			28.984			-2.898
32001.000			28.978			-2.898
32101.000			28.977			-2.898
32200.000			28.976			-2.898
32300.000			28.975			-2.897
32401.000			28.972			-2.897
32500.000			28.970			-2.897
32600.000			28.968			-2.897
32702.000			28.965			-2.897
32801.000			28.963			-2.896
32901.000			28.963			-2.896
33001.000			28.961			-2.896
33100.000			28.960			-2.896
33200.000			28.958			-2.896
33301.000			28.955			-2.896
33400.000			28.954			-2.895
33500.000			28.950			-2.895
33602.000			28.949			-2.895
33701.000			28.947			-2.895
33800.000			28.946			-2.895
33901.000			28.945			-2.894
34000.000			28.942			-2.894
34100.000			28.941			-2.894
34201.000			28.938			-2.894
34300.000			28.936			-2.894
34401.000			28.936			-2.894
34502.000			28.934			-2.893
34600.000			28.931			-2.893
34700.000			28.929			-2.893
34801.000			28.928			-2.893
34900.000			28.926			-2.893
35001.000			28.924			-2.892
35100.000			28.923			-2.892
35201.000			28.921			-2.892
35302.000			28.919			-2.892
35400.000			28.918			-2.892
35500.000			28.916			-2.892
35601.000			28.914			-2.891
35700.000			28.912			-2.891
35800.000			28.910			-2.891
35901.000			28.909			-2.891
36001.000			28.907			-2.891
36101.000			28.905			-2.890
36201.000			28.903			-2.890
36300.000			28.902			-2.890
36400.000			28.898			-2.890
36501.000			28.897			-2.890
36600.000			28.896			-2.890
36700.000			28.895			-2.889
36802.000			28.893			-2.889
36901.000			28.892			-2.889
37000.000			28.890			-2.889
37101.000			28.887			-2.889
37200.000			28.885			-2.888
37300.000			28.884			-2.888
37401.000			28.882			-2.888
37500.000			28.881			-2.888
37600.000			28.880			-2.888
37702.000			28.878			-2.888
37801.000			28.876			-2.888
37900.000			28.874			-2.887
38001.000			28.872			-2.887
38100.000			28.871			-2.887
38201.000			28.870			-2.887
38300.000			28.867			-2.887
38400.000			28.866			-2.887
38502.000			28.865			-2.887
38601.000			28.862			-2.886
38700.000			28.861			-2.886
38801.000			28.859			-2.886
38900.000			28.858			-2.886
39000.000			28.857			-2.886
39101.000			28.856			-2.886
39200.000			28.855			-2.885
39301.000			28.852			-2.885
39402.000			28.850			-2.885
39500.000			28.849			-2.885
39600.000			28.848			-2.885
39701.000			28.846			-2.885
39800.000			28.844			-2.884
39900.000			28.843			-2.884
40001.000			28.842			-2.884
40100.000			28.840			-2.884
40201.000			28.839			-2.884
40302.000			28.838			-2.884
40400.000			28.836			-2.884
40500.000			28.835			-2.883
40601.000			28.833			-2.883
40700.000			28.832			-2.883
40800.000			28.831			-2.883
40901.000			28.828			-2.883
41001.000			28.826			-2.883
41101.000			28.825			-2.883
41201.000			28.824			-2.882
41300.000			28.823			-2.882
41401.000			28.821			-2.882
41500.000			28.819			-2.882
41600.000			28.817			-2.882
41701.000			28.815			-2.881
41801.000			28.815			-2.881
41901.000			28.814			-2.881
42001.000			28.812			-2.881
42100.000			28.810			-2.881
42200.000			28.808			-2.881
42301.000			28.807			-2.881
42400.000			28.806			-2.881
42500.000			28.805			-2.881
42602.000			28.803			-2.880
42701.000			28.801			-2.880
42800.000			28.800			-2.880
42901.000			28.799			-2.880
43000.000			28.795			-2.879
43100.000			28.795			-2.879
43201.000			28.794			-2.879
43300.000			28.792			-2.879
43400.000			28.791			-2.879
43502.000			28.790			-2.879
43601.000			28.790			-2.879
43700.000			28.787			-2.879
43801.000			28.785			-2.879
43900.000			28.784			-2.878
44000.000			28.782			-2.878
44101.000			28.781			-2.878
44200.000			28.780			-2.878
44301.000			28.779			-2.878
44402.000			28.777			-2.878
44500.000			28.775			-2.877
44601.000			28.773			-2.877
44700.000			28.773			-2.877
44800.000			28.772			-2.877
44901.000			28.770			-2.877
45000.000			28.768			-2.877
45101.000			28.767			-2.877
45202.000			28.766			-2.877
45301.000			28.765			-2.877
45400.000			28.764			-2.876
45501.000			28.762			-2.876
45600.000			28.762			-2.876
45700.000			28.760			-2.876
45801.000			28.758			-2.876
45900.000			28.756			-2.876
46001.000			28.755			-2.875
46102.000			28.754			-2.875
46200.000			28.753			-2.875
46300.000			28.752			-2.875
46401.000			28.750			-2.875
46500.000			28.748			-2.875
46600.000			28.745			-2.874
46701.000			28.743			-2.874
46801.000			28.743			-2.874
46901.000			28.743			-2.874
47001.000			28.741			-2.874
47100.000			28.740			-2.874
47200.000			28.740			-2.874
47301.000			28.738			-2.874
47400.000			28.735			-2.874
47500.000			28.734			-2.873
47602.000			28.733			-2.873
47701.000			28.732			-2.873
47801.000			28.730			-2.873
47900.000			28.728			-2.873
48000.000			28.727			-2.873
48101.000			28.724			-2.872
48200.000			28.724			-2.872
48300.000			28.723			-2.872
48402.000			28.723			-2.872
48501.000			28.720			-2.872
48601.000			28.719			-2.872
48701.000			28.719			-2.872
48800.000			28.716			-2.872
48900.000			28.715			-2.871
49001.000			28.714			-2.871
49100.000			28.713			-2.871
49200.000			28.712			-2.871
49302.000			28.711			-2.871
49401.000			28.710			-2.871
49500.000			28.709			-2.871
49601.000			28.705			-2.871
49700.000			28.705			-2.870
49800.000			28.703			-2.870
49901.000			28.701			-2.870
50000.000			28.701			-2.870
50101.000			28.701			-2.870
50202.000			28.699			-2.870
50300.000			28.696			-2.870
50400.000			28.696			-2.870
50501.000			28.695			-2.869
50600.000			28.694			-2.869
50700.000			28.693			-2.869
50801.000			28.692			-2.869
50901.000			28.691			-2.869
51002.000			28.689			-2.869
51100.000			28.687			-2.869
51200.000			28.686			-2.869
51301.000			28.685			-2.869
51400.000			28.684			-2.868
51500.000			28.682			-2.868
51601.000			28.681			-2.868
51701.000			28.679			-2.868
51801.000			28.678			-2.868
51901.000			28.676			-2.868
52000.000			28.676			-2.868
52100.000			28.676			-2.868
52201.000			28.674			-2.867
52300.000			28.672			-2.867
52400.000			28.672			-2.867
52502.000			28.670			-2.867
52601.000			28.668			-2.867
52700.000			28.667			-2.867
52801.000			28.666			-2.867
52900.000			28.665			-2.867
53000.000			28.664			-2.866
53101.000			28.663			-2.866
53200.000			28.661			-2.866
53301.000			28.660			-2.866
53402.000			28.658			-2.866
53500.000			28.658			-2.866
53600.000			28.657			-2.866
53701.000			28.655			-2.866
53800.000			28.655			-2.865
53900.000			28.652			-2.865
54001.000			28.652			-2.865
54101.000			28.650			-2.865
54202.000			28.649			-2.865
54300.000			28.648			-2.865
54400.000			28.648			-2.865
54501.000			28.647			-2.865
54600.000			28.646			-2.865
54700.000			28.643			-2.864
54801.000			28.642			-2.864
54901.000			28.641			-2.864
55001.000			28.640			-2.864
55101.000			28.640			-2.864
55200.000			28.639			-2.864
55300.000			28.636			-2.864
55401.000			28.635			-2.863
55500.000			28.634			-2.863
55600.000			28.634			-2.863
55702.000			28.632			-2.863
55801.000			28.631			-2.863
55900.000			28.630			-2.863
56001.000			28.629			-2.863
56100.000			28.628			-2.863
56200.000			28.626			-2.863
56301.000			28.626			-2.863
56400.000			28.626			-2.863
56501.000			28.624			-2.862
56602.000			28.623			-2.862
56701.000			28.622			-2.862
56800.000			28.621			-2.862
56901.000			28.620			-2.862
57000.000			28.619			-2.862
57100.000			28.618			-2.862
57201.000			28.616			-2.862
57301.000			28.615			-2.862
57402.000			28.615			-2.861
57501.000			28.614			-2.861
57600.000			28.612			-2.861
57701.000			28.611			-2.861
57800.000			28.609			-2.861
57900.000			28.609			-2.861
58001.000			28.607			-2.861
58100.000			28.606			-2.861
58201.000			28.606			-2.861
58302.000			28.603			-2.860
58400.000			28.603			-2.860
58500.000			28.602			-2.860
58601.000			28.601			-2.860
58700.000			28.599			-2.860
58800.000			28.598			-2.860
58901.000			28.598			-2.860
59001.000			28.597			-2.860
59101.000			28.596			-2.860
59201.000			28.595			-2.860
59300.000			28.594			-2.859
59400.000			28.592			-2.859
59501.000			28.592			-2.859
59600.000			28.591			-2.859
59700.000			28.590			-2.859
59802.000			28.587			-2.859
59901.000			28.586			-2.859
60001.000			28.585			-2.858
60101.000			28.585			-2.859
60200.000			28.584			-2.858
60300.000			28.583			-2.858
60401.000			28.582			-2.858
60500.000			28.580			-2.858
60601.000			28.578			-2.858
60701.000			28.578			-2.858
60801.000			28.578			-2.858
60901.000			28.577			-2.858
61000.000			28.576			-2.858
61100.000			28.575			-2.858
61201.000			28.574			-2.857
61300.000			28.572			-2.857
61400.000			28.571			-2.857
61502.000			28.571			-2.857
61601.000			28.570			-2.857
61700.000			28.569			-2.857
61801.000			28.568			-2.857
61900.000			28.568			-2.857
62000.000			28.565			-2.856
62101.000			28.564			-2.856
62200.000			28.564			-2.856
62301.000			28.563			-2.856
62402.000			28.562			-2.856
62500.000			28.559			-2.856
62600.000			28.559			-2.856
62701.000			28.559			-2.856
62800.000			28.558			-2.856
62900.000			28.556			-2.856
63001.000			28.556			-2.856
63101.000			28.555			-2.855
63201.000			28.553			-2.855
63301.000			28.553			-2.855
63400.000			28.552			-2.855
63500.000			28.549			-2.855
63601.000			28.548			-2.855
63700.000			28.548			-2.855
63801.000			28.547			-2.855
63901.000			28.546			-2.855
64001.000			28.545			-2.855
64101.000			28.545			-2.855
64200.000			28.544			-2.854
64300.000			28.542			-2.854
64401.000			28.541			-2.854
64500.000			28.541			-2.854
64600.000			28.540			-2.854
64702.000			28.539			-2.854
64801.000			28.538			-2.854
64901.000			28.534			-2.853
65001.000			28.534			-2.853
65100.000			28.534			-2.853
65200.000			28.533			-2.853
65301.000			28.532			-2.853
65400.000			28.531			-2.853
65500.000			28.530			-2.853
65602.000			28.529			-2.853
65701.000			28.528			-2.853
65800.000			28.528			-2.853
65901.000			28.527			-2.853
66000.000			28.526			-2.853
66100.000			28.526			-2.853
66201.000			28.524			-2.852
66300.000			28.523			-2.852
66401.000			28.522			-2.852
66502.000			28.521			-2.852
66600.000			28.520			-2.852
66700.000			28.520			-2.852
66801.000			28.519			-2.852
66900.000			28.517			-2.852
67001.000			28.517			-2.852
67100.000			28.515			-2.852
67201.000			28.514			-2.851
67302.000			28.513			-2.851
67400.000			28.512			-2.851
67500.000			28.512			-2.851
67601.000			28.511			-2.851
67700.000			28.510			-2.851
67800.000			28.508			-2.851
67901.000			28.507			-2.851
68001.000			28.506			-2.851
68101.000			28.506			-2.851
68202.000			28.505			-2.851
68300.000			28.504			-2.850
68400.000			28.503			-2.850
68501.000			28.502			-2.850
68600.000			28.501			-2.850
68700.000			28.500			-2.850
68801.000			28.498			-2.850
68901.000			28.499			-2.850
69001.000			28.499			-2.850
69101.000			28.497			-2.850
69200.000			28.496			-2.850
69300.000			28.495			-2.849
69401.000			28.493			-2.849
69500.000			28.492			-2.849
69600.000			28.492			-2.849
69702.000			28.490			-2.849
69801.000			28.491			-2.849
69901.000			28.489			-2.849
70001.000			28.488			-2.849
70100.000			28.487			-2.849
70201.000			28.486			-2.849
70300.000			28.485			-2.848
70400.000			28.485			-2.848
70501.000			28.484			-2.848
70601.000			28.483			-2.848
70701.000			28.483			-2.848
70801.000			28.481			-2.848
70900.000			28.479			-2.848
71000.000			28.477			-2.848
71101.000			28.478			-2.848
71200.000			28.478			-2.848
