# Acquired on 08/01/2024 12:28:02 
# SPIDER: Creep_-2mm_07714532B-1
# CREEP MEASUREMENT

# time [ms]		force [N]		stiffness [N/mm]
0.000			4.692			-2.346
100.000			5.404			-2.702
202.000			5.669			-2.834
301.000			5.693			-2.847
400.000			5.665			-2.832
501.000			5.643			-2.822
600.000			5.612			-2.806
700.000			5.600			-2.800
801.000			5.589			-2.794
901.000			5.580			-2.790
1001.000			5.571			-2.785
1101.000			5.563			-2.782
1200.000			5.557			-2.778
1300.000			5.550			-2.775
1400.000			5.538			-2.769
1500.000			5.532			-2.766
1601.000			5.527			-2.763
1701.000			5.522			-2.761
1801.000			5.518			-2.759
1901.000			5.515			-2.757
2000.000			5.511			-2.755
2100.000			5.504			-2.752
2201.000			5.500			-2.750
2300.000			5.496			-2.748
2401.000			5.494			-2.747
2502.000			5.490			-2.745
2600.000			5.487			-2.743
2700.000			5.484			-2.742
2801.000			5.478			-2.739
2900.000			5.476			-2.738
3000.000			5.474			-2.737
3101.000			5.471			-2.736
3201.000			5.469			-2.735
3301.000			5.467			-2.733
3401.000			5.465			-2.732
3500.000			5.462			-2.731
3600.000			5.458			-2.729
3701.000			5.457			-2.728
3800.000			5.455			-2.728
3901.000			5.454			-2.727
4002.000			5.451			-2.726
4100.000			5.449			-2.725
4200.000			5.448			-2.724
4301.000			5.445			-2.722
4400.000			5.443			-2.721
4500.000			5.441			-2.721
4600.000			5.440			-2.720
4701.000			5.437			-2.719
4802.000			5.435			-2.718
4900.000			5.435			-2.718
5000.000			5.433			-2.716
5101.000			5.431			-2.715
5200.000			5.430			-2.715
5300.000			5.429			-2.714
5402.000			5.427			-2.714
5501.000			5.426			-2.713
5600.000			5.425			-2.712
5701.000			5.421			-2.711
5800.000			5.420			-2.710
5900.000			5.420			-2.710
6001.000			5.418			-2.709
6100.000			5.417			-2.708
6201.000			5.417			-2.708
6302.000			5.415			-2.707
6400.000			5.414			-2.707
6500.000			5.412			-2.706
6601.000			5.411			-2.705
6700.000			5.411			-2.705
6800.000			5.409			-2.705
6902.000			5.408			-2.704
7001.000			5.407			-2.703
7100.000			5.405			-2.703
7201.000			5.404			-2.702
7300.000			5.402			-2.701
7400.000			5.402			-2.701
7501.000			5.401			-2.700
7600.000			5.400			-2.700
7702.000			5.399			-2.700
7801.000			5.398			-2.699
7900.000			5.397			-2.698
8001.000			5.395			-2.698
8100.000			5.394			-2.697
8200.000			5.394			-2.697
8301.000			5.393			-2.697
8400.000			5.393			-2.696
8501.000			5.392			-2.696
8602.000			5.390			-2.695
8700.000			5.388			-2.694
8800.000			5.388			-2.694
8901.000			5.388			-2.694
9000.000			5.387			-2.694
9100.000			5.386			-2.693
9202.000			5.387			-2.693
9301.000			5.385			-2.693
9401.000			5.383			-2.692
9501.000			5.384			-2.692
9600.000			5.384			-2.692
9700.000			5.383			-2.691
9801.000			5.382			-2.691
9900.000			5.381			-2.690
10001.000			5.379			-2.689
10102.000			5.378			-2.689
10200.000			5.379			-2.689
10300.000			5.378			-2.689
10401.000			5.377			-2.688
10500.000			5.377			-2.688
10600.000			5.375			-2.688
10701.000			5.375			-2.687
10801.000			5.373			-2.686
10902.000			5.373			-2.686
11000.000			5.373			-2.686
11100.000			5.372			-2.686
11201.000			5.371			-2.686
11300.000			5.369			-2.685
11400.000			5.369			-2.684
11501.000			5.369			-2.685
11601.000			5.369			-2.684
11701.000			5.367			-2.684
11801.000			5.367			-2.684
11900.000			5.367			-2.683
12000.000			5.366			-2.683
12101.000			5.366			-2.683
12200.000			5.366			-2.683
12300.000			5.363			-2.681
12402.000			5.363			-2.681
12501.000			5.363			-2.681
12600.000			5.363			-2.681
12701.000			5.361			-2.681
12800.000			5.361			-2.680
12900.000			5.361			-2.680
13001.000			5.359			-2.680
13100.000			5.359			-2.679
13201.000			5.358			-2.679
13302.000			5.358			-2.679
13400.000			5.358			-2.679
13500.000			5.358			-2.679
13601.000			5.357			-2.679
13700.000			5.356			-2.678
13800.000			5.356			-2.678
13901.000			5.355			-2.677
14001.000			5.354			-2.677
14102.000			5.354			-2.677
14200.000			5.353			-2.677
14300.000			5.354			-2.677
14401.000			5.352			-2.676
14500.000			5.352			-2.676
14600.000			5.351			-2.675
14701.000			5.352			-2.676
14801.000			5.351			-2.676
14901.000			5.350			-2.675
15001.000			5.350			-2.675
15100.000			5.349			-2.674
15200.000			5.348			-2.674
15301.000			5.347			-2.674
15400.000			5.348			-2.674
15500.000			5.347			-2.673
15602.000			5.348			-2.674
15701.000			5.347			-2.674
15800.000			5.346			-2.673
15901.000			5.346			-2.673
16000.000			5.345			-2.672
16100.000			5.345			-2.672
16201.000			5.344			-2.672
16301.000			5.344			-2.672
16401.000			5.344			-2.672
16502.000			5.343			-2.671
16600.000			5.342			-2.671
16700.000			5.341			-2.671
16801.000			5.340			-2.670
16900.000			5.340			-2.670
17000.000			5.340			-2.670
17102.000			5.339			-2.670
17201.000			5.340			-2.670
17300.000			5.339			-2.670
17400.000			5.339			-2.669
17500.000			5.338			-2.669
17601.000			5.337			-2.669
17700.000			5.337			-2.668
17800.000			5.337			-2.668
17902.000			5.337			-2.668
18001.000			5.336			-2.668
18101.000			5.336			-2.668
18201.000			5.334			-2.667
18300.000			5.334			-2.667
18400.000			5.335			-2.667
18501.000			5.335			-2.667
18600.000			5.334			-2.667
18700.000			5.333			-2.667
18802.000			5.333			-2.666
18901.000			5.332			-2.666
19000.000			5.332			-2.666
19101.000			5.332			-2.666
19200.000			5.331			-2.665
19300.000			5.331			-2.665
19401.000			5.331			-2.665
19501.000			5.330			-2.665
19601.000			5.329			-2.665
19701.000			5.329			-2.665
19800.000			5.329			-2.665
19900.000			5.329			-2.664
20001.000			5.329			-2.664
20100.000			5.328			-2.664
20200.000			5.327			-2.664
20302.000			5.327			-2.663
20401.000			5.327			-2.663
20500.000			5.326			-2.663
20600.000			5.326			-2.663
20700.000			5.326			-2.663
20801.000			5.326			-2.663
20900.000			5.326			-2.663
21000.000			5.325			-2.662
21102.000			5.324			-2.662
21201.000			5.324			-2.662
21300.000			5.323			-2.662
21401.000			5.323			-2.662
21500.000			5.324			-2.662
21600.000			5.324			-2.662
21701.000			5.321			-2.660
21801.000			5.322			-2.661
21901.000			5.323			-2.662
22001.000			5.321			-2.661
22100.000			5.320			-2.660
22200.000			5.320			-2.660
22301.000			5.321			-2.660
22400.000			5.321			-2.660
22500.000			5.320			-2.660
22602.000			5.319			-2.659
22701.000			5.319			-2.659
22800.000			5.320			-2.660
22901.000			5.319			-2.660
23000.000			5.318			-2.659
23100.000			5.318			-2.659
23201.000			5.319			-2.660
23301.000			5.318			-2.659
23401.000			5.318			-2.659
23502.000			5.317			-2.659
23600.000			5.317			-2.658
23700.000			5.316			-2.658
23800.000			5.316			-2.658
23900.000			5.317			-2.658
24001.000			5.315			-2.657
24101.000			5.315			-2.657
24201.000			5.316			-2.658
24301.000			5.316			-2.658
24400.000			5.315			-2.657
24500.000			5.315			-2.658
24601.000			5.314			-2.657
24700.000			5.313			-2.657
24800.000			5.313			-2.657
24902.000			5.314			-2.657
25001.000			5.314			-2.657
25100.000			5.314			-2.657
25201.000			5.311			-2.656
25300.000			5.312			-2.656
25400.000			5.312			-2.656
25501.000			5.312			-2.656
25600.000			5.311			-2.656
25701.000			5.311			-2.656
25802.000			5.311			-2.655
25900.000			5.311			-2.656
26000.000			5.311			-2.655
26101.000			5.310			-2.655
26200.000			5.309			-2.655
26300.000			5.309			-2.654
26401.000			5.310			-2.655
26501.000			5.309			-2.655
26601.000			5.309			-2.654
26701.000			5.309			-2.655
26800.000			5.308			-2.654
26900.000			5.308			-2.654
27000.000			5.307			-2.653
27100.000			5.306			-2.653
27202.000			5.307			-2.653
27301.000			5.307			-2.653
27401.000			5.306			-2.653
27501.000			5.306			-2.653
27600.000			5.306			-2.653
27700.000			5.305			-2.653
27801.000			5.305			-2.652
27900.000			5.305			-2.652
28001.000			5.305			-2.653
28102.000			5.305			-2.653
28200.000			5.304			-2.652
28300.000			5.305			-2.652
28401.000			5.304			-2.652
28500.000			5.305			-2.653
28600.000			5.305			-2.652
28701.000			5.303			-2.652
28801.000			5.303			-2.652
28901.000			5.303			-2.651
29001.000			5.302			-2.651
29100.000			5.302			-2.651
29200.000			5.302			-2.651
29301.000			5.302			-2.651
29400.000			5.301			-2.650
29500.000			5.301			-2.650
29602.000			5.300			-2.650
29701.000			5.301			-2.650
29800.000			5.300			-2.650
29901.000			5.300			-2.650
30000.000			5.300			-2.650
30100.000			5.300			-2.650
30200.000			5.300			-2.650
30300.000			5.300			-2.650
30402.000			5.299			-2.649
30501.000			5.299			-2.650
30600.000			5.298			-2.649
30701.000			5.298			-2.649
30800.000			5.298			-2.649
30900.000			5.298			-2.649
31001.000			5.298			-2.649
31100.000			5.297			-2.648
31201.000			5.296			-2.648
31302.000			5.297			-2.648
31400.000			5.296			-2.648
31500.000			5.296			-2.648
31601.000			5.297			-2.648
31700.000			5.296			-2.648
31800.000			5.296			-2.648
31901.000			5.296			-2.648
32001.000			5.295			-2.648
32101.000			5.295			-2.648
32201.000			5.294			-2.647
32300.000			5.294			-2.647
32400.000			5.293			-2.647
32501.000			5.292			-2.646
32600.000			5.293			-2.647
32700.000			5.293			-2.647
32802.000			5.292			-2.646
32901.000			5.293			-2.647
33000.000			5.293			-2.646
33101.000			5.292			-2.646
33200.000			5.293			-2.646
33300.000			5.294			-2.647
33400.000			5.292			-2.646
33500.000			5.292			-2.646
33602.000			5.292			-2.646
33701.000			5.292			-2.646
33800.000			5.291			-2.645
33901.000			5.290			-2.645
34000.000			5.290			-2.645
34100.000			5.290			-2.645
34201.000			5.290			-2.645
34301.000			5.290			-2.645
34401.000			5.290			-2.645
34502.000			5.290			-2.645
34600.000			5.290			-2.645
34700.000			5.289			-2.644
34801.000			5.289			-2.645
34900.000			5.289			-2.644
35000.000			5.289			-2.644
35101.000			5.289			-2.644
35201.000			5.288			-2.644
35301.000			5.288			-2.644
35401.000			5.288			-2.644
35500.000			5.288			-2.644
35600.000			5.288			-2.644
35701.000			5.288			-2.644
35800.000			5.287			-2.644
35900.000			5.287			-2.644
36002.000			5.287			-2.643
36101.000			5.287			-2.644
36200.000			5.286			-2.643
36301.000			5.286			-2.643
36400.000			5.286			-2.643
36500.000			5.285			-2.643
36600.000			5.285			-2.643
36700.000			5.286			-2.643
36802.000			5.284			-2.642
36901.000			5.284			-2.642
37000.000			5.286			-2.643
37101.000			5.286			-2.643
37200.000			5.284			-2.642
37300.000			5.284			-2.642
37401.000			5.283			-2.642
37500.000			5.284			-2.642
37601.000			5.284			-2.642
37702.000			5.284			-2.642
37800.000			5.284			-2.642
37900.000			5.283			-2.641
38001.000			5.283			-2.642
38100.000			5.283			-2.641
38200.000			5.282			-2.641
38301.000			5.283			-2.641
38401.000			5.283			-2.641
38501.000			5.282			-2.641
38601.000			5.281			-2.641
38700.000			5.281			-2.641
38800.000			5.281			-2.641
38901.000			5.282			-2.641
39000.000			5.280			-2.640
39100.000			5.280			-2.640
39202.000			5.281			-2.641
39301.000			5.280			-2.640
39400.000			5.280			-2.640
39501.000			5.281			-2.640
39600.000			5.281			-2.640
39700.000			5.280			-2.640
39800.000			5.281			-2.640
39900.000			5.279			-2.640
40002.000			5.278			-2.639
40101.000			5.279			-2.640
40200.000			5.279			-2.639
40301.000			5.279			-2.639
40400.000			5.278			-2.639
40500.000			5.278			-2.639
40601.000			5.278			-2.639
40700.000			5.279			-2.639
40801.000			5.278			-2.639
40902.000			5.277			-2.639
41000.000			5.278			-2.639
41100.000			5.278			-2.639
41201.000			5.277			-2.639
41300.000			5.278			-2.639
41400.000			5.277			-2.638
41501.000			5.277			-2.638
41601.000			5.277			-2.638
41701.000			5.277			-2.638
41801.000			5.278			-2.639
41900.000			5.277			-2.638
42000.000			5.276			-2.638
42101.000			5.276			-2.638
42200.000			5.276			-2.638
42300.000			5.274			-2.637
42402.000			5.275			-2.638
42501.000			5.276			-2.638
42600.000			5.276			-2.638
42701.000			5.275			-2.638
42800.000			5.275			-2.637
42900.000			5.274			-2.637
43000.000			5.275			-2.638
43100.000			5.276			-2.638
43202.000			5.274			-2.637
43301.000			5.274			-2.637
43400.000			5.275			-2.637
43501.000			5.273			-2.637
43600.000			5.273			-2.637
43700.000			5.274			-2.637
43801.000			5.274			-2.637
43901.000			5.273			-2.636
44001.000			5.273			-2.636
44101.000			5.274			-2.637
44200.000			5.274			-2.637
44300.000			5.272			-2.636
44401.000			5.273			-2.636
44500.000			5.273			-2.637
44600.000			5.273			-2.637
44702.000			5.273			-2.637
44801.000			5.272			-2.636
44900.000			5.272			-2.636
45001.000			5.271			-2.636
45100.000			5.271			-2.636
45200.000			5.272			-2.636
45301.000			5.271			-2.636
45400.000			5.270			-2.635
45501.000			5.271			-2.636
45602.000			5.272			-2.636
45700.000			5.270			-2.635
45800.000			5.270			-2.635
45901.000			5.271			-2.635
46000.000			5.270			-2.635
46100.000			5.271			-2.635
46200.000			5.270			-2.635
46301.000			5.270			-2.635
46402.000			5.269			-2.634
46500.000			5.268			-2.634
46600.000			5.268			-2.634
46701.000			5.269			-2.634
46800.000			5.270			-2.635
46900.000			5.269			-2.635
47001.000			5.269			-2.634
47101.000			5.268			-2.634
47201.000			5.268			-2.634
47301.000			5.267			-2.634
47400.000			5.267			-2.634
47500.000			5.267			-2.633
47601.000			5.267			-2.633
47700.000			5.268			-2.634
47800.000			5.267			-2.634
47902.000			5.268			-2.634
48001.000			5.268			-2.634
48100.000			5.268			-2.634
48201.000			5.267			-2.633
48300.000			5.267			-2.633
48400.000			5.267			-2.633
48501.000			5.267			-2.634
48600.000			5.267			-2.633
48701.000			5.266			-2.633
48802.000			5.266			-2.633
48901.000			5.266			-2.633
49000.000			5.266			-2.633
49101.000			5.266			-2.633
49200.000			5.266			-2.633
49300.000			5.266			-2.633
49400.000			5.265			-2.632
49500.000			5.265			-2.632
49602.000			5.264			-2.632
49701.000			5.265			-2.633
49800.000			5.265			-2.632
49901.000			5.264			-2.632
50000.000			5.264			-2.632
50100.000			5.265			-2.632
50201.000			5.264			-2.632
50300.000			5.264			-2.632
50401.000			5.264			-2.632
50501.000			5.265			-2.632
50600.000			5.265			-2.632
50700.000			5.264			-2.632
50801.000			5.262			-2.631
50900.000			5.263			-2.632
51000.000			5.264			-2.632
51102.000			5.263			-2.632
51201.000			5.264			-2.632
51300.000			5.264			-2.632
51401.000			5.264			-2.632
51500.000			5.263			-2.631
51600.000			5.263			-2.631
51701.000			5.262			-2.631
51800.000			5.261			-2.630
51901.000			5.261			-2.630
52002.000			5.262			-2.631
52100.000			5.261			-2.631
52200.000			5.263			-2.631
52301.000			5.262			-2.631
52400.000			5.262			-2.631
52500.000			5.262			-2.631
52600.000			5.261			-2.631
52701.000			5.260			-2.630
52802.000			5.261			-2.630
52900.000			5.261			-2.631
53000.000			5.260			-2.630
53101.000			5.260			-2.630
53200.000			5.260			-2.630
53300.000			5.260			-2.630
53402.000			5.260			-2.630
53501.000			5.260			-2.630
53600.000			5.261			-2.630
53701.000			5.259			-2.629
53800.000			5.260			-2.630
53900.000			5.260			-2.630
54001.000			5.260			-2.630
54100.000			5.260			-2.630
54201.000			5.260			-2.630
54302.000			5.258			-2.629
54400.000			5.258			-2.629
54500.000			5.258			-2.629
54601.000			5.258			-2.629
54700.000			5.258			-2.629
54800.000			5.259			-2.629
54901.000			5.259			-2.630
55001.000			5.259			-2.630
55101.000			5.258			-2.629
55201.000			5.258			-2.629
55300.000			5.257			-2.629
55400.000			5.257			-2.629
55501.000			5.257			-2.628
55600.000			5.257			-2.628
55700.000			5.257			-2.629
55802.000			5.257			-2.629
55901.000			5.257			-2.629
56001.000			5.257			-2.629
56100.000			5.257			-2.628
56200.000			5.257			-2.628
56301.000			5.256			-2.628
56400.000			5.257			-2.628
56500.000			5.257			-2.628
56602.000			5.256			-2.628
56701.000			5.256			-2.628
56800.000			5.255			-2.627
56901.000			5.255			-2.628
57000.000			5.256			-2.628
57100.000			5.256			-2.628
57201.000			5.256			-2.628
57300.000			5.255			-2.627
57401.000			5.255			-2.627
57502.000			5.255			-2.627
57600.000			5.255			-2.627
57700.000			5.254			-2.627
57801.000			5.254			-2.627
57900.000			5.253			-2.627
58000.000			5.254			-2.627
58101.000			5.254			-2.627
58201.000			5.253			-2.627
58301.000			5.253			-2.627
58401.000			5.253			-2.627
58500.000			5.254			-2.627
58600.000			5.255			-2.627
58701.000			5.254			-2.627
58800.000			5.253			-2.626
58900.000			5.253			-2.627
59002.000			5.253			-2.627
59101.000			5.253			-2.626
59201.000			5.252			-2.626
59300.000			5.253			-2.627
59400.000			5.254			-2.627
59501.000			5.253			-2.626
59600.000			5.253			-2.627
59700.000			5.253			-2.627
59802.000			5.252			-2.626
59901.000			5.252			-2.626
60000.000			5.253			-2.626
60101.000			5.253			-2.626
60200.000			5.252			-2.626
60300.000			5.252			-2.626
60401.000			5.252			-2.626
60501.000			5.251			-2.626
60601.000			5.252			-2.626
60701.000			5.252			-2.626
60800.000			5.250			-2.625
60900.000			5.251			-2.625
61001.000			5.251			-2.626
61100.000			5.251			-2.625
61200.000			5.251			-2.625
61302.000			5.251			-2.626
61401.000			5.251			-2.626
61500.000			5.251			-2.625
61601.000			5.251			-2.626
61700.000			5.250			-2.625
61800.000			5.250			-2.625
61901.000			5.251			-2.625
62000.000			5.251			-2.625
62102.000			5.250			-2.625
62201.000			5.250			-2.625
62300.000			5.249			-2.625
62401.000			5.250			-2.625
62500.000			5.250			-2.625
62600.000			5.249			-2.625
62701.000			5.249			-2.625
62801.000			5.249			-2.625
62901.000			5.249			-2.625
63002.000			5.249			-2.625
63100.000			5.248			-2.624
63200.000			5.248			-2.624
63301.000			5.248			-2.624
63400.000			5.248			-2.624
63500.000			5.247			-2.624
63602.000			5.248			-2.624
63701.000			5.249			-2.624
63801.000			5.248			-2.624
63901.000			5.249			-2.624
64000.000			5.248			-2.624
64100.000			5.248			-2.624
64201.000			5.247			-2.624
64300.000			5.248			-2.624
64401.000			5.247			-2.624
64502.000			5.247			-2.624
64600.000			5.248			-2.624
64700.000			5.248			-2.624
64801.000			5.248			-2.624
64900.000			5.247			-2.624
65000.000			5.248			-2.624
65101.000			5.247			-2.624
65201.000			5.246			-2.623
65302.000			5.248			-2.624
65401.000			5.247			-2.623
65500.000			5.246			-2.623
65601.000			5.246			-2.623
65700.000			5.246			-2.623
65800.000			5.246			-2.623
65901.000			5.246			-2.623
66001.000			5.247			-2.623
66101.000			5.246			-2.623
66202.000			5.244			-2.622
66300.000			5.245			-2.623
66400.000			5.246			-2.623
66501.000			5.245			-2.622
66600.000			5.245			-2.623
66700.000			5.245			-2.623
66801.000			5.245			-2.622
66901.000			5.245			-2.623
67001.000			5.245			-2.622
67101.000			5.245			-2.622
67200.000			5.245			-2.622
67300.000			5.245			-2.622
67401.000			5.245			-2.623
67500.000			5.244			-2.622
67600.000			5.245			-2.622
67702.000			5.246			-2.623
67801.000			5.246			-2.623
67900.000			5.244			-2.622
68001.000			5.243			-2.622
68100.000			5.244			-2.622
68200.000			5.243			-2.622
68301.000			5.243			-2.621
68400.000			5.243			-2.621
68502.000			5.243			-2.622
68601.000			5.243			-2.622
68700.000			5.244			-2.622
68801.000			5.244			-2.622
68900.000			5.242			-2.621
69000.000			5.242			-2.621
69101.000			5.243			-2.621
69200.000			5.243			-2.621
69301.000			5.243			-2.621
69402.000			5.242			-2.621
69500.000			5.242			-2.621
69600.000			5.242			-2.621
69701.000			5.242			-2.621
69800.000			5.242			-2.621
69900.000			5.242			-2.621
70001.000			5.241			-2.621
70101.000			5.241			-2.621
70201.000			5.241			-2.621
70301.000			5.242			-2.621
70400.000			5.243			-2.621
70500.000			5.242			-2.621
70601.000			5.241			-2.620
70700.000			5.240			-2.620
70800.000			5.240			-2.620
70902.000			5.241			-2.620
71001.000			5.241			-2.620
71100.000			5.241			-2.620
71201.000			5.240			-2.620
71300.000			5.239			-2.620
71400.000			5.239			-2.620
71501.000			5.240			-2.620
71601.000			5.241			-2.620
71702.000			5.240			-2.620
71801.000			5.240			-2.620
71900.000			5.240			-2.620
72001.000			5.239			-2.620
72100.000			5.240			-2.620
72200.000			5.240			-2.620
72301.000			5.238			-2.619
72400.000			5.239			-2.619
72501.000			5.239			-2.619
72602.000			5.238			-2.619
72700.000			5.239			-2.619
72800.000			5.239			-2.620
72901.000			5.239			-2.619
73000.000			5.239			-2.620
73100.000			5.239			-2.620
73201.000			5.240			-2.620
73301.000			5.239			-2.619
73401.000			5.239			-2.619
73501.000			5.239			-2.619
73600.000			5.239			-2.619
73700.000			5.239			-2.619
73801.000			5.238			-2.619
73900.000			5.237			-2.619
