# Acquired on 10/01/2024 15:32:46 
# SPIDER: Creep_7mm_07714532C-1
# CREEP MEASUREMENT

# time [ms]		force [N]		stiffness [N/mm]
1.000			-11.261			-1.609
101.000			-11.695			-1.671
200.000			-11.824			-1.689
300.000			-11.787			-1.684
401.000			-11.731			-1.676
500.000			-11.689			-1.670
601.000			-11.653			-1.665
701.000			-11.597			-1.657
800.000			-11.574			-1.653
900.000			-11.552			-1.650
1001.000			-11.532			-1.647
1100.000			-11.515			-1.645
1200.000			-11.499			-1.643
1302.000			-11.483			-1.640
1401.000			-11.456			-1.637
1500.000			-11.443			-1.635
1601.000			-11.431			-1.633
1700.000			-11.419			-1.631
1800.000			-11.408			-1.630
1901.000			-11.397			-1.628
2001.000			-11.387			-1.627
2101.000			-11.369			-1.624
2202.000			-11.360			-1.623
2300.000			-11.351			-1.622
2400.000			-11.343			-1.620
2501.000			-11.335			-1.619
2600.000			-11.326			-1.618
2700.000			-11.319			-1.617
2802.000			-11.313			-1.616
2901.000			-11.299			-1.614
3000.000			-11.292			-1.613
3100.000			-11.286			-1.612
3200.000			-11.280			-1.611
3301.000			-11.274			-1.611
3400.000			-11.267			-1.610
3500.000			-11.261			-1.609
3602.000			-11.250			-1.607
3701.000			-11.245			-1.606
3800.000			-11.240			-1.606
3901.000			-11.235			-1.605
4000.000			-11.230			-1.604
4100.000			-11.224			-1.603
4201.000			-11.219			-1.603
4301.000			-11.210			-1.601
4401.000			-11.206			-1.601
4501.000			-11.201			-1.600
4600.000			-11.196			-1.599
4700.000			-11.192			-1.599
4801.000			-11.189			-1.598
4900.000			-11.184			-1.598
5001.000			-11.175			-1.596
5102.000			-11.172			-1.596
5200.000			-11.167			-1.595
5300.000			-11.164			-1.595
5401.000			-11.160			-1.594
5500.000			-11.156			-1.594
5600.000			-11.152			-1.593
5701.000			-11.149			-1.593
5801.000			-11.142			-1.592
5901.000			-11.139			-1.591
6001.000			-11.135			-1.591
6100.000			-11.132			-1.590
6200.000			-11.129			-1.590
6300.000			-11.125			-1.589
6400.000			-11.122			-1.589
6502.000			-11.114			-1.588
6601.000			-11.112			-1.587
6700.000			-11.109			-1.587
6801.000			-11.106			-1.587
6900.000			-11.103			-1.586
7000.000			-11.100			-1.586
7101.000			-11.098			-1.585
7200.000			-11.091			-1.584
7301.000			-11.089			-1.584
7402.000			-11.087			-1.584
7500.000			-11.084			-1.583
7600.000			-11.080			-1.583
7701.000			-11.077			-1.582
7800.000			-11.074			-1.582
7900.000			-11.069			-1.581
8001.000			-11.067			-1.581
8101.000			-11.065			-1.581
8201.000			-11.062			-1.580
8301.000			-11.059			-1.580
8400.000			-11.056			-1.579
8500.000			-11.054			-1.579
8601.000			-11.052			-1.579
8700.000			-11.046			-1.578
8801.000			-11.045			-1.578
8902.000			-11.042			-1.577
9000.000			-11.040			-1.577
9100.000			-11.038			-1.577
9201.000			-11.036			-1.577
9300.000			-11.033			-1.576
9400.000			-11.029			-1.576
9502.000			-11.027			-1.575
9601.000			-11.025			-1.575
9701.000			-11.022			-1.575
9800.000			-11.020			-1.574
9900.000			-11.018			-1.574
10001.000			-11.016			-1.574
10100.000			-11.011			-1.573
10200.000			-11.010			-1.573
10302.000			-11.008			-1.573
10401.000			-11.006			-1.572
10500.000			-11.003			-1.572
10601.000			-11.001			-1.572
10700.000			-10.999			-1.571
10800.000			-10.994			-1.571
10901.000			-10.994			-1.571
11000.000			-10.992			-1.570
11101.000			-10.990			-1.570
11202.000			-10.988			-1.570
11300.000			-10.986			-1.569
11400.000			-10.985			-1.569
11501.000			-10.981			-1.569
11600.000			-10.980			-1.569
11700.000			-10.978			-1.568
11801.000			-10.977			-1.568
11901.000			-10.974			-1.568
12001.000			-10.972			-1.567
12102.000			-10.970			-1.567
12200.000			-10.969			-1.567
12300.000			-10.965			-1.566
12401.000			-10.964			-1.566
12500.000			-10.962			-1.566
12600.000			-10.961			-1.566
12702.000			-10.958			-1.565
12801.000			-10.956			-1.565
12902.000			-10.954			-1.565
13000.000			-10.952			-1.565
13100.000			-10.951			-1.564
13201.000			-10.950			-1.564
13300.000			-10.947			-1.564
13400.000			-10.945			-1.564
13502.000			-10.944			-1.563
13601.000			-10.942			-1.563
13701.000			-10.940			-1.563
13801.000			-10.937			-1.562
13900.000			-10.936			-1.562
14000.000			-10.934			-1.562
14101.000			-10.933			-1.562
14200.000			-10.933			-1.562
14301.000			-10.930			-1.561
14402.000			-10.927			-1.561
14501.000			-10.924			-1.561
14600.000			-10.923			-1.560
14701.000			-10.923			-1.560
14800.000			-10.922			-1.560
14900.000			-10.919			-1.560
15001.000			-10.918			-1.560
15101.000			-10.918			-1.560
15201.000			-10.915			-1.559
15301.000			-10.912			-1.559
15400.000			-10.911			-1.559
15500.000			-10.911			-1.559
15601.000			-10.908			-1.558
15700.000			-10.907			-1.558
15800.000			-10.906			-1.558
15902.000			-10.903			-1.558
16001.000			-10.903			-1.558
16101.000			-10.901			-1.557
16200.000			-10.899			-1.557
16300.000			-10.898			-1.557
16401.000			-10.896			-1.557
16500.000			-10.895			-1.556
16600.000			-10.893			-1.556
16701.000			-10.892			-1.556
16801.000			-10.890			-1.556
16901.000			-10.889			-1.556
17001.000			-10.889			-1.556
17100.000			-10.887			-1.555
17200.000			-10.886			-1.555
17301.000			-10.883			-1.555
17400.000			-10.881			-1.554
17500.000			-10.880			-1.554
17602.000			-10.879			-1.554
17701.000			-10.879			-1.554
17800.000			-10.878			-1.554
17901.000			-10.876			-1.554
18000.000			-10.874			-1.553
18100.000			-10.872			-1.553
18201.000			-10.870			-1.553
18300.000			-10.869			-1.553
18401.000			-10.868			-1.553
18502.000			-10.866			-1.552
18600.000			-10.865			-1.552
18700.000			-10.864			-1.552
18801.000			-10.863			-1.552
18900.000			-10.862			-1.552
19000.000			-10.861			-1.552
19100.000			-10.859			-1.551
19201.000			-10.857			-1.551
19302.000			-10.856			-1.551
19400.000			-10.855			-1.551
19500.000			-10.853			-1.550
19601.000			-10.852			-1.550
19700.000			-10.851			-1.550
19800.000			-10.849			-1.550
19901.000			-10.848			-1.550
20001.000			-10.847			-1.550
20101.000			-10.847			-1.550
20201.000			-10.846			-1.549
20300.000			-10.843			-1.549
20400.000			-10.842			-1.549
20501.000			-10.841			-1.549
20600.000			-10.840			-1.549
20700.000			-10.840			-1.549
20802.000			-10.839			-1.548
20901.000			-10.837			-1.548
21000.000			-10.836			-1.548
21101.000			-10.835			-1.548
21200.000			-10.833			-1.548
21300.000			-10.831			-1.547
21401.000			-10.829			-1.547
21500.000			-10.829			-1.547
21601.000			-10.828			-1.547
21702.000			-10.826			-1.547
21800.000			-10.825			-1.546
21900.000			-10.824			-1.546
22001.000			-10.824			-1.546
22100.000			-10.822			-1.546
22200.000			-10.821			-1.546
22302.000			-10.819			-1.546
22401.000			-10.819			-1.546
22501.000			-10.818			-1.545
22600.000			-10.817			-1.545
22700.000			-10.815			-1.545
22801.000			-10.814			-1.545
22900.000			-10.814			-1.545
23000.000			-10.813			-1.545
23102.000			-10.811			-1.544
23201.000			-10.809			-1.544
23300.000			-10.808			-1.544
23401.000			-10.807			-1.544
23500.000			-10.806			-1.544
23600.000			-10.806			-1.544
23701.000			-10.805			-1.544
23800.000			-10.803			-1.543
23901.000			-10.802			-1.543
24002.000			-10.800			-1.543
24100.000			-10.799			-1.543
24200.000			-10.797			-1.542
24301.000			-10.797			-1.542
24400.000			-10.796			-1.542
24500.000			-10.795			-1.542
24601.000			-10.793			-1.542
24701.000			-10.792			-1.542
24801.000			-10.791			-1.542
24901.000			-10.789			-1.541
25000.000			-10.788			-1.541
25100.000			-10.788			-1.541
25201.000			-10.787			-1.541
25300.000			-10.784			-1.541
25400.000			-10.784			-1.541
25502.000			-10.783			-1.540
25601.000			-10.783			-1.540
25701.000			-10.782			-1.540
25800.000			-10.781			-1.540
25900.000			-10.781			-1.540
26001.000			-10.779			-1.540
26100.000			-10.779			-1.540
26200.000			-10.778			-1.540
26302.000			-10.776			-1.539
26401.000			-10.775			-1.539
26500.000			-10.775			-1.539
26601.000			-10.774			-1.539
26700.000			-10.772			-1.539
26800.000			-10.771			-1.539
26901.000			-10.771			-1.539
27000.000			-10.771			-1.539
27101.000			-10.770			-1.539
27202.000			-10.768			-1.538
27301.000			-10.768			-1.538
27400.000			-10.767			-1.538
27501.000			-10.765			-1.538
27600.000			-10.765			-1.538
27700.000			-10.764			-1.538
27801.000			-10.763			-1.538
27901.000			-10.763			-1.538
28001.000			-10.761			-1.537
28102.000			-10.760			-1.537
28200.000			-10.759			-1.537
28300.000			-10.758			-1.537
28401.000			-10.757			-1.537
28500.000			-10.757			-1.537
28600.000			-10.755			-1.536
28700.000			-10.754			-1.536
28801.000			-10.754			-1.536
28902.000			-10.753			-1.536
29000.000			-10.752			-1.536
29100.000			-10.752			-1.536
29201.000			-10.751			-1.536
29300.000			-10.750			-1.536
29400.000			-10.749			-1.536
29501.000			-10.748			-1.535
29601.000			-10.748			-1.535
29701.000			-10.747			-1.535
29801.000			-10.747			-1.535
29900.000			-10.745			-1.535
30000.000			-10.744			-1.535
30101.000			-10.745			-1.535
30200.000			-10.743			-1.535
30300.000			-10.743			-1.535
30402.000			-10.741			-1.534
30501.000			-10.740			-1.534
30600.000			-10.739			-1.534
30701.000			-10.739			-1.534
30800.000			-10.739			-1.534
30900.000			-10.738			-1.534
31001.000			-10.737			-1.534
31101.000			-10.735			-1.534
31201.000			-10.734			-1.533
31302.000			-10.734			-1.533
31400.000			-10.734			-1.533
31500.000			-10.734			-1.533
31601.000			-10.733			-1.533
31700.000			-10.733			-1.533
31800.000			-10.732			-1.533
31902.000			-10.730			-1.533
32001.000			-10.730			-1.533
32101.000			-10.730			-1.533
32200.000			-10.729			-1.533
32300.000			-10.728			-1.533
32401.000			-10.727			-1.532
32500.000			-10.726			-1.532
32600.000			-10.724			-1.532
32702.000			-10.724			-1.532
32801.000			-10.724			-1.532
32900.000			-10.723			-1.532
33001.000			-10.723			-1.532
33100.000			-10.723			-1.532
33200.000			-10.721			-1.532
33301.000			-10.719			-1.531
33400.000			-10.719			-1.531
33501.000			-10.719			-1.531
33602.000			-10.718			-1.531
33700.000			-10.719			-1.531
33800.000			-10.717			-1.531
33901.000			-10.717			-1.531
34000.000			-10.716			-1.531
34100.000			-10.714			-1.531
34201.000			-10.714			-1.531
34301.000			-10.713			-1.530
34401.000			-10.713			-1.530
34501.000			-10.711			-1.530
34600.000			-10.711			-1.530
34700.000			-10.710			-1.530
34801.000			-10.709			-1.530
34900.000			-10.708			-1.530
35002.000			-10.708			-1.530
35101.000			-10.707			-1.530
35201.000			-10.707			-1.530
35301.000			-10.707			-1.530
35400.000			-10.706			-1.529
35500.000			-10.705			-1.529
35601.000			-10.704			-1.529
35700.000			-10.704			-1.529
35801.000			-10.702			-1.529
35902.000			-10.702			-1.529
36000.000			-10.702			-1.529
36100.000			-10.701			-1.529
36201.000			-10.700			-1.529
36300.000			-10.699			-1.528
36400.000			-10.697			-1.528
36501.000			-10.698			-1.528
36601.000			-10.698			-1.528
36701.000			-10.697			-1.528
36801.000			-10.696			-1.528
36900.000			-10.696			-1.528
37000.000			-10.695			-1.528
37101.000			-10.694			-1.528
37200.000			-10.693			-1.528
37300.000			-10.692			-1.527
37402.000			-10.691			-1.527
37501.000			-10.691			-1.527
37600.000			-10.690			-1.527
37701.000			-10.689			-1.527
37800.000			-10.688			-1.527
37900.000			-10.688			-1.527
38001.000			-10.688			-1.527
38100.000			-10.688			-1.527
38202.000			-10.687			-1.527
38301.000			-10.686			-1.527
38401.000			-10.684			-1.526
38501.000			-10.684			-1.526
38600.000			-10.684			-1.526
38700.000			-10.683			-1.526
38801.000			-10.682			-1.526
38900.000			-10.682			-1.526
39001.000			-10.682			-1.526
39102.000			-10.681			-1.526
39200.000			-10.679			-1.526
39300.000			-10.679			-1.526
39401.000			-10.679			-1.526
39500.000			-10.678			-1.525
39600.000			-10.678			-1.525
39701.000			-10.678			-1.525
39801.000			-10.677			-1.525
39901.000			-10.675			-1.525
40002.000			-10.675			-1.525
40100.000			-10.675			-1.525
40200.000			-10.674			-1.525
40301.000			-10.673			-1.525
40400.000			-10.672			-1.525
40500.000			-10.672			-1.525
40602.000			-10.671			-1.524
40701.000			-10.672			-1.525
40800.000			-10.671			-1.524
40901.000			-10.670			-1.524
41000.000			-10.669			-1.524
41100.000			-10.669			-1.524
41201.000			-10.669			-1.524
41300.000			-10.668			-1.524
41402.000			-10.667			-1.524
41501.000			-10.666			-1.524
41600.000			-10.667			-1.524
41701.000			-10.666			-1.524
41800.000			-10.665			-1.524
41900.000			-10.665			-1.524
42001.000			-10.664			-1.523
42100.000			-10.663			-1.523
42201.000			-10.663			-1.523
42302.000			-10.663			-1.523
42400.000			-10.662			-1.523
42500.000			-10.661			-1.523
42601.000			-10.661			-1.523
42700.000			-10.660			-1.523
42800.000			-10.660			-1.523
42901.000			-10.659			-1.523
43001.000			-10.658			-1.523
43101.000			-10.658			-1.523
43201.000			-10.657			-1.522
43300.000			-10.657			-1.522
43400.000			-10.656			-1.522
43501.000			-10.656			-1.522
43600.000			-10.656			-1.522
43700.000			-10.656			-1.522
43802.000			-10.655			-1.522
43901.000			-10.655			-1.522
44000.000			-10.654			-1.522
44101.000			-10.654			-1.522
44200.000			-10.652			-1.522
44300.000			-10.652			-1.522
44401.000			-10.652			-1.522
44500.000			-10.651			-1.522
44602.000			-10.649			-1.521
44701.000			-10.649			-1.521
44800.000			-10.650			-1.521
44901.000			-10.650			-1.521
45000.000			-10.648			-1.521
45100.000			-10.647			-1.521
45201.000			-10.647			-1.521
45300.000			-10.647			-1.521
45401.000			-10.647			-1.521
45502.000			-10.646			-1.521
45600.000			-10.646			-1.521
45700.000			-10.645			-1.521
45801.000			-10.644			-1.521
45900.000			-10.643			-1.520
46000.000			-10.643			-1.520
46101.000			-10.643			-1.520
46201.000			-10.643			-1.520
46301.000			-10.642			-1.520
46401.000			-10.642			-1.520
46500.000			-10.641			-1.520
46600.000			-10.640			-1.520
46701.000			-10.640			-1.520
46800.000			-10.639			-1.520
46900.000			-10.638			-1.520
47002.000			-10.639			-1.520
47101.000			-10.636			-1.519
47200.000			-10.636			-1.519
47301.000			-10.636			-1.519
47400.000			-10.636			-1.519
47500.000			-10.635			-1.519
47601.000			-10.635			-1.519
47701.000			-10.634			-1.519
47802.000			-10.634			-1.519
47901.000			-10.633			-1.519
48000.000			-10.633			-1.519
48101.000			-10.632			-1.519
48200.000			-10.631			-1.519
48300.000			-10.631			-1.519
48401.000			-10.631			-1.519
48501.000			-10.630			-1.519
48601.000			-10.630			-1.519
48701.000			-10.630			-1.519
48800.000			-10.629			-1.518
48900.000			-10.627			-1.518
49001.000			-10.627			-1.518
49100.000			-10.628			-1.518
49200.000			-10.627			-1.518
49302.000			-10.625			-1.518
49401.000			-10.625			-1.518
49501.000			-10.626			-1.518
49601.000			-10.626			-1.518
49700.000			-10.625			-1.518
49800.000			-10.624			-1.518
49901.000			-10.623			-1.518
50000.000			-10.623			-1.518
50100.000			-10.622			-1.517
50202.000			-10.622			-1.517
50301.000			-10.622			-1.517
50400.000			-10.620			-1.517
50501.000			-10.621			-1.517
50600.000			-10.620			-1.517
50700.000			-10.620			-1.517
50801.000			-10.619			-1.517
50901.000			-10.619			-1.517
51002.000			-10.619			-1.517
51100.000			-10.618			-1.517
51200.000			-10.617			-1.517
51301.000			-10.617			-1.517
51400.000			-10.616			-1.517
51500.000			-10.615			-1.516
51601.000			-10.615			-1.516
51701.000			-10.615			-1.516
51801.000			-10.614			-1.516
51901.000			-10.614			-1.516
52000.000			-10.614			-1.516
52100.000			-10.612			-1.516
52201.000			-10.612			-1.516
52300.000			-10.611			-1.516
52400.000			-10.611			-1.516
52502.000			-10.610			-1.516
52601.000			-10.610			-1.516
52700.000			-10.609			-1.516
52801.000			-10.609			-1.516
52900.000			-10.608			-1.515
53000.000			-10.608			-1.515
53101.000			-10.607			-1.515
53200.000			-10.607			-1.515
53301.000			-10.606			-1.515
53402.000			-10.606			-1.515
53500.000			-10.607			-1.515
53600.000			-10.605			-1.515
53701.000			-10.605			-1.515
53800.000			-10.604			-1.515
53900.000			-10.603			-1.515
54001.000			-10.604			-1.515
54101.000			-10.603			-1.515
54202.000			-10.603			-1.515
54300.000			-10.603			-1.515
54400.000			-10.601			-1.514
54501.000			-10.601			-1.514
54600.000			-10.601			-1.514
54700.000			-10.601			-1.514
54802.000			-10.599			-1.514
54901.000			-10.599			-1.514
55001.000			-10.599			-1.514
55101.000			-10.598			-1.514
55200.000			-10.597			-1.514
55300.000			-10.597			-1.514
55401.000			-10.597			-1.514
55500.000			-10.595			-1.514
55600.000			-10.596			-1.514
55702.000			-10.596			-1.514
55801.000			-10.595			-1.514
55900.000			-10.594			-1.513
56001.000			-10.593			-1.513
56100.000			-10.593			-1.513
56200.000			-10.593			-1.513
56301.000			-10.592			-1.513
56400.000			-10.591			-1.513
56501.000			-10.592			-1.513
56602.000			-10.591			-1.513
56700.000			-10.590			-1.513
56800.000			-10.590			-1.513
56901.000			-10.589			-1.513
57000.000			-10.589			-1.513
57100.000			-10.588			-1.513
57201.000			-10.588			-1.513
57301.000			-10.588			-1.513
57402.000			-10.587			-1.512
57500.000			-10.586			-1.512
57600.000			-10.586			-1.512
57701.000			-10.585			-1.512
57800.000			-10.584			-1.512
57900.000			-10.584			-1.512
58001.000			-10.582			-1.512
58101.000			-10.581			-1.512
58201.000			-10.582			-1.512
58301.000			-10.581			-1.512
58400.000			-10.581			-1.512
58500.000			-10.581			-1.512
58601.000			-10.581			-1.512
58700.000			-10.580			-1.511
58800.000			-10.579			-1.511
58902.000			-10.579			-1.511
59001.000			-10.578			-1.511
59100.000			-10.577			-1.511
59201.000			-10.576			-1.511
59300.000			-10.577			-1.511
59400.000			-10.577			-1.511
59501.000			-10.576			-1.511
59600.000			-10.576			-1.511
59701.000			-10.576			-1.511
59802.000			-10.575			-1.511
59900.000			-10.575			-1.511
60000.000			-10.576			-1.511
60101.000			-10.576			-1.511
60200.000			-10.574			-1.511
60300.000			-10.572			-1.510
60401.000			-10.571			-1.510
60501.000			-10.571			-1.510
60602.000			-10.571			-1.510
60700.000			-10.572			-1.510
60800.000			-10.572			-1.510
60901.000			-10.572			-1.510
61000.000			-10.571			-1.510
61100.000			-10.571			-1.510
61201.000			-10.570			-1.510
61301.000			-10.569			-1.510
61401.000			-10.568			-1.510
61501.000			-10.568			-1.510
61600.000			-10.567			-1.510
61700.000			-10.567			-1.510
61801.000			-10.567			-1.510
61900.000			-10.567			-1.510
62000.000			-10.567			-1.510
62102.000			-10.566			-1.509
62201.000			-10.567			-1.510
62300.000			-10.566			-1.509
62401.000			-10.564			-1.509
62500.000			-10.564			-1.509
62600.000			-10.564			-1.509
62701.000			-10.563			-1.509
62800.000			-10.562			-1.509
62901.000			-10.562			-1.509
63002.000			-10.562			-1.509
63100.000			-10.561			-1.509
63200.000			-10.560			-1.509
63301.000			-10.559			-1.508
63400.000			-10.559			-1.508
63500.000			-10.559			-1.508
63601.000			-10.558			-1.508
63701.000			-10.558			-1.508
63802.000			-10.558			-1.508
63900.000			-10.558			-1.508
64000.000			-10.557			-1.508
64101.000			-10.556			-1.508
64200.000			-10.556			-1.508
64300.000			-10.555			-1.508
64401.000			-10.555			-1.508
64501.000			-10.555			-1.508
64601.000			-10.554			-1.508
64701.000			-10.554			-1.508
64800.000			-10.553			-1.508
64900.000			-10.552			-1.507
65001.000			-10.553			-1.508
65100.000			-10.552			-1.507
65200.000			-10.551			-1.507
65302.000			-10.551			-1.507
65401.000			-10.551			-1.507
65500.000			-10.551			-1.507
65601.000			-10.550			-1.507
65700.000			-10.550			-1.507
65800.000			-10.549			-1.507
65901.000			-10.550			-1.507
66000.000			-10.549			-1.507
66101.000			-10.548			-1.507
66202.000			-10.548			-1.507
66300.000			-10.548			-1.507
66400.000			-10.547			-1.507
66501.000			-10.547			-1.507
66600.000			-10.547			-1.507
66700.000			-10.545			-1.506
66801.000			-10.546			-1.507
66901.000			-10.546			-1.507
67002.000			-10.545			-1.506
67100.000			-10.545			-1.506
67200.000			-10.545			-1.506
67301.000			-10.546			-1.507
67400.000			-10.545			-1.506
67500.000			-10.544			-1.506
67601.000			-10.543			-1.506
67701.000			-10.543			-1.506
67801.000			-10.543			-1.506
67901.000			-10.543			-1.506
68000.000			-10.543			-1.506
68100.000			-10.542			-1.506
68201.000			-10.540			-1.506
68300.000			-10.539			-1.506
68400.000			-10.540			-1.506
68502.000			-10.540			-1.506
68601.000			-10.539			-1.506
68700.000			-10.540			-1.506
68801.000			-10.541			-1.506
