# Acquired on 29/01/2024 14:36:08 
# SPIDER: Creep_8mm_HM077x145x38AA-1
# CREEP MEASUREMENT

# time [ms]		force [N]		stiffness [N/mm]
0.000			-43.015			-5.377
105.000			-44.170			-5.521
204.000			-44.521			-5.565
304.000			-44.262			-5.533
405.000			-44.164			-5.520
504.000			-44.081			-5.510
604.000			-44.011			-5.501
705.000			-43.950			-5.494
804.000			-43.894			-5.487
904.000			-43.844			-5.480
1004.000			-43.753			-5.469
1104.000			-43.712			-5.464
1204.000			-43.675			-5.459
1305.000			-43.639			-5.455
1404.000			-43.605			-5.451
1504.000			-43.574			-5.447
1605.000			-43.544			-5.443
1703.000			-43.515			-5.439
1805.000			-43.462			-5.433
1904.000			-43.436			-5.430
2004.000			-43.411			-5.426
2105.000			-43.388			-5.424
2203.000			-43.365			-5.421
2304.000			-43.344			-5.418
2405.000			-43.323			-5.415
2504.000			-43.284			-5.410
2604.000			-43.265			-5.408
2705.000			-43.246			-5.406
2804.000			-43.226			-5.403
2903.000			-43.209			-5.401
3005.000			-43.193			-5.399
3104.000			-43.176			-5.397
3204.000			-43.143			-5.393
3305.000			-43.128			-5.391
3403.000			-43.113			-5.389
3504.000			-43.099			-5.387
3605.000			-43.085			-5.386
3704.000			-43.071			-5.384
3804.000			-43.056			-5.382
3905.000			-43.032			-5.379
4004.000			-43.020			-5.377
4103.000			-43.006			-5.376
4205.000			-42.993			-5.374
4304.000			-42.981			-5.373
4404.000			-42.969			-5.371
4505.000			-42.956			-5.370
4603.000			-42.944			-5.368
4704.000			-42.922			-5.365
4805.000			-42.911			-5.364
4904.000			-42.901			-5.363
5005.000			-42.891			-5.361
5104.000			-42.882			-5.360
5204.000			-42.871			-5.359
5304.000			-42.860			-5.358
5404.000			-42.842			-5.355
5504.000			-42.832			-5.354
5605.000			-42.822			-5.353
5704.000			-42.812			-5.351
5804.000			-42.803			-5.350
5905.000			-42.793			-5.349
6003.000			-42.785			-5.348
6104.000			-42.767			-5.346
6205.000			-42.758			-5.345
6304.000			-42.751			-5.344
6404.000			-42.742			-5.343
6504.000			-42.735			-5.342
6604.000			-42.727			-5.341
6704.000			-42.717			-5.340
6805.000			-42.701			-5.338
6904.000			-42.692			-5.337
7004.000			-42.685			-5.336
7105.000			-42.677			-5.335
7203.000			-42.671			-5.334
7304.000			-42.664			-5.333
7405.000			-42.656			-5.332
7504.000			-42.642			-5.330
7604.000			-42.635			-5.329
7705.000			-42.627			-5.328
7804.000			-42.621			-5.328
7903.000			-42.613			-5.327
8005.000			-42.607			-5.326
8104.000			-42.599			-5.325
8205.000			-42.593			-5.324
8304.000			-42.580			-5.323
8403.000			-42.573			-5.322
8505.000			-42.567			-5.321
8604.000			-42.561			-5.320
8704.000			-42.554			-5.319
8805.000			-42.548			-5.318
8904.000			-42.542			-5.318
9004.000			-42.530			-5.316
9104.000			-42.524			-5.315
9204.000			-42.517			-5.315
9304.000			-42.511			-5.314
9405.000			-42.505			-5.313
9504.000			-42.499			-5.312
9603.000			-42.494			-5.312
9705.000			-42.485			-5.311
9804.000			-42.478			-5.310
9904.000			-42.472			-5.309
10005.000			-42.466			-5.308
10104.000			-42.461			-5.308
10204.000			-42.456			-5.307
10304.000			-42.450			-5.306
10404.000			-42.440			-5.305
10504.000			-42.434			-5.304
10605.000			-42.428			-5.303
10704.000			-42.423			-5.303
10804.000			-42.419			-5.302
10905.000			-42.414			-5.302
11003.000			-42.408			-5.301
11104.000			-42.398			-5.300
11205.000			-42.393			-5.299
11304.000			-42.387			-5.298
11405.000			-42.382			-5.298
11504.000			-42.377			-5.297
11604.000			-42.372			-5.296
11704.000			-42.367			-5.296
11804.000			-42.362			-5.295
11904.000			-42.353			-5.294
12005.000			-42.348			-5.294
12104.000			-42.344			-5.293
12203.000			-42.339			-5.292
12305.000			-42.335			-5.292
12404.000			-42.331			-5.291
12504.000			-42.326			-5.291
12605.000			-42.317			-5.290
12704.000			-42.314			-5.289
12804.000			-42.309			-5.289
12904.000			-42.304			-5.288
13004.000			-42.299			-5.287
13104.000			-42.295			-5.287
13205.000			-42.290			-5.286
13304.000			-42.282			-5.285
13404.000			-42.277			-5.285
13505.000			-42.274			-5.284
13603.000			-42.270			-5.284
13704.000			-42.266			-5.283
13805.000			-42.262			-5.283
13904.000			-42.259			-5.282
14004.000			-42.249			-5.281
14105.000			-42.245			-5.281
14204.000			-42.242			-5.280
14303.000			-42.238			-5.280
14405.000			-42.234			-5.279
14504.000			-42.231			-5.279
14605.000			-42.226			-5.278
14704.000			-42.222			-5.278
14803.000			-42.213			-5.277
14905.000			-42.210			-5.276
15004.000			-42.206			-5.276
15104.000			-42.202			-5.275
15205.000			-42.199			-5.275
15304.000			-42.195			-5.274
15404.000			-42.190			-5.274
15504.000			-42.185			-5.273
15604.000			-42.180			-5.273
15704.000			-42.176			-5.272
15805.000			-42.174			-5.272
15904.000			-42.170			-5.271
16004.000			-42.166			-5.271
16105.000			-42.163			-5.270
16203.000			-42.155			-5.269
16304.000			-42.151			-5.269
16405.000			-42.149			-5.269
16504.000			-42.145			-5.268
16604.000			-42.142			-5.268
16705.000			-42.138			-5.267
16804.000			-42.134			-5.267
16903.000			-42.127			-5.266
17005.000			-42.124			-5.266
17104.000			-42.121			-5.265
17204.000			-42.118			-5.265
17305.000			-42.114			-5.264
17403.000			-42.111			-5.264
17504.000			-42.108			-5.263
17605.000			-42.102			-5.263
17704.000			-42.098			-5.262
17805.000			-42.096			-5.262
17904.000			-42.092			-5.262
18004.000			-42.087			-5.261
18104.000			-42.084			-5.260
18204.000			-42.082			-5.260
18304.000			-42.080			-5.260
18405.000			-42.073			-5.259
18504.000			-42.069			-5.259
18604.000			-42.067			-5.258
18705.000			-42.064			-5.258
18803.000			-42.060			-5.258
18904.000			-42.057			-5.257
19005.000			-42.054			-5.257
19104.000			-42.047			-5.256
19204.000			-42.045			-5.256
19305.000			-42.042			-5.255
19404.000			-42.040			-5.255
19503.000			-42.036			-5.254
19605.000			-42.034			-5.254
19704.000			-42.031			-5.254
19804.000			-42.026			-5.253
19905.000			-42.022			-5.253
20003.000			-42.019			-5.252
20104.000			-42.015			-5.252
20205.000			-42.012			-5.251
20304.000			-42.009			-5.251
20404.000			-42.007			-5.251
20505.000			-42.003			-5.250
20604.000			-42.000			-5.250
20703.000			-41.995			-5.249
20805.000			-41.992			-5.249
20904.000			-41.990			-5.249
21005.000			-41.988			-5.248
21104.000			-41.985			-5.248
21204.000			-41.982			-5.248
21305.000			-41.976			-5.247
21403.000			-41.974			-5.247
21504.000			-41.972			-5.247
21605.000			-41.970			-5.246
21704.000			-41.968			-5.246
21804.000			-41.964			-5.245
21905.000			-41.960			-5.245
22004.000			-41.956			-5.244
22103.000			-41.953			-5.244
22205.000			-41.950			-5.244
22304.000			-41.947			-5.243
22404.000			-41.944			-5.243
22505.000			-41.942			-5.243
22604.000			-41.940			-5.243
22704.000			-41.936			-5.242
22804.000			-41.933			-5.242
22904.000			-41.929			-5.241
23004.000			-41.927			-5.241
23105.000			-41.924			-5.241
23204.000			-41.921			-5.240
23303.000			-41.918			-5.240
23405.000			-41.914			-5.239
23504.000			-41.912			-5.239
23604.000			-41.910			-5.239
23705.000			-41.907			-5.238
23804.000			-41.904			-5.238
23904.000			-41.901			-5.238
24004.000			-41.900			-5.237
24104.000			-41.894			-5.237
24205.000			-41.892			-5.237
24304.000			-41.891			-5.236
24404.000			-41.889			-5.236
24505.000			-41.887			-5.236
24604.000			-41.884			-5.236
24703.000			-41.881			-5.235
24805.000			-41.879			-5.235
24904.000			-41.872			-5.234
25004.000			-41.870			-5.234
25105.000			-41.867			-5.233
25204.000			-41.865			-5.233
25304.000			-41.863			-5.233
25404.000			-41.861			-5.233
25504.000			-41.858			-5.232
25604.000			-41.854			-5.232
25705.000			-41.852			-5.232
25804.000			-41.850			-5.231
25904.000			-41.848			-5.231
26005.000			-41.845			-5.231
26103.000			-41.842			-5.230
26204.000			-41.840			-5.230
26305.000			-41.837			-5.230
26404.000			-41.834			-5.229
26504.000			-41.832			-5.229
26604.000			-41.830			-5.229
26704.000			-41.827			-5.228
26803.000			-41.825			-5.228
26905.000			-41.823			-5.228
27004.000			-41.819			-5.227
27104.000			-41.818			-5.227
27205.000			-41.816			-5.227
27303.000			-41.813			-5.227
27405.000			-41.811			-5.226
27504.000			-41.808			-5.226
27604.000			-41.805			-5.226
27705.000			-41.801			-5.225
27804.000			-41.800			-5.225
27904.000			-41.797			-5.225
28004.000			-41.795			-5.224
28104.000			-41.793			-5.224
28204.000			-41.792			-5.224
28305.000			-41.790			-5.224
28404.000			-41.786			-5.223
28504.000			-41.781			-5.223
28605.000			-41.780			-5.223
28703.000			-41.779			-5.222
28804.000			-41.776			-5.222
28904.000			-41.774			-5.222
29004.000			-41.773			-5.222
29104.000			-41.771			-5.221
29205.000			-41.766			-5.221
29304.000			-41.764			-5.220
29404.000			-41.762			-5.220
29505.000			-41.761			-5.220
29603.000			-41.758			-5.220
29704.000			-41.756			-5.219
29805.000			-41.753			-5.219
29904.000			-41.749			-5.219
30004.000			-41.748			-5.218
30105.000			-41.746			-5.218
30204.000			-41.744			-5.218
30303.000			-41.741			-5.218
30405.000			-41.740			-5.217
30504.000			-41.738			-5.217
30605.000			-41.734			-5.217
30704.000			-41.731			-5.216
30803.000			-41.728			-5.216
30905.000			-41.726			-5.216
31004.000			-41.725			-5.216
31104.000			-41.724			-5.215
31205.000			-41.723			-5.215
31304.000			-41.720			-5.215
31404.000			-41.716			-5.215
31504.000			-41.714			-5.214
31604.000			-41.713			-5.214
31704.000			-41.709			-5.214
31805.000			-41.707			-5.213
31904.000			-41.707			-5.213
32004.000			-41.706			-5.213
32105.000			-41.701			-5.213
32203.000			-41.698			-5.212
32304.000			-41.696			-5.212
32405.000			-41.696			-5.212
32504.000			-41.694			-5.212
32604.000			-41.692			-5.211
32705.000			-41.690			-5.211
32804.000			-41.686			-5.211
32903.000			-41.685			-5.211
33005.000			-41.684			-5.211
33104.000			-41.681			-5.210
33204.000			-41.678			-5.210
33305.000			-41.677			-5.210
33403.000			-41.675			-5.209
33504.000			-41.672			-5.209
33605.000			-41.670			-5.209
33704.000			-41.669			-5.209
33805.000			-41.668			-5.208
33904.000			-41.666			-5.208
34004.000			-41.663			-5.208
34104.000			-41.661			-5.208
34204.000			-41.657			-5.207
34304.000			-41.655			-5.207
34405.000			-41.652			-5.207
34504.000			-41.651			-5.206
34604.000			-41.651			-5.206
34705.000			-41.649			-5.206
34803.000			-41.647			-5.206
34904.000			-41.645			-5.206
35005.000			-41.642			-5.205
35104.000			-41.640			-5.205
35204.000			-41.639			-5.205
35305.000			-41.638			-5.205
35404.000			-41.635			-5.204
35503.000			-41.633			-5.204
35605.000			-41.632			-5.204
35704.000			-41.629			-5.204
35804.000			-41.627			-5.203
35905.000			-41.626			-5.203
36004.000			-41.624			-5.203
36104.000			-41.622			-5.203
36204.000			-41.620			-5.202
36304.000			-41.617			-5.202
36404.000			-41.615			-5.202
36505.000			-41.614			-5.202
36604.000			-41.613			-5.202
36703.000			-41.610			-5.201
36805.000			-41.608			-5.201
36904.000			-41.606			-5.201
37005.000			-41.605			-5.201
37104.000			-41.603			-5.200
37204.000			-41.601			-5.200
37305.000			-41.600			-5.200
37403.000			-41.598			-5.200
37504.000			-41.596			-5.199
37605.000			-41.593			-5.199
37704.000			-41.591			-5.199
37804.000			-41.589			-5.199
37905.000			-41.587			-5.198
38004.000			-41.586			-5.198
38103.000			-41.583			-5.198
38205.000			-41.581			-5.198
38304.000			-41.580			-5.197
38404.000			-41.578			-5.197
38505.000			-41.576			-5.197
38604.000			-41.575			-5.197
38704.000			-41.572			-5.197
38804.000			-41.571			-5.196
38904.000			-41.569			-5.196
39004.000			-41.568			-5.196
39105.000			-41.567			-5.196
39204.000			-41.565			-5.196
39304.000			-41.562			-5.195
39405.000			-41.561			-5.195
39503.000			-41.559			-5.195
39604.000			-41.557			-5.195
39705.000			-41.556			-5.195
39804.000			-41.554			-5.194
39904.000			-41.552			-5.194
40005.000			-41.549			-5.194
40104.000			-41.547			-5.193
40203.000			-41.546			-5.193
40304.000			-41.546			-5.193
40404.000			-41.544			-5.193
40505.000			-41.543			-5.193
40604.000			-41.542			-5.193
40704.000			-41.537			-5.192
40805.000			-41.536			-5.192
40903.000			-41.534			-5.192
41004.000			-41.533			-5.192
41105.000			-41.530			-5.191
41204.000			-41.529			-5.191
41304.000			-41.528			-5.191
41404.000			-41.526			-5.191
41504.000			-41.525			-5.191
41604.000			-41.523			-5.190
41705.000			-41.522			-5.190
41804.000			-41.520			-5.190
41904.000			-41.518			-5.190
42005.000			-41.516			-5.190
42103.000			-41.515			-5.189
42204.000			-41.513			-5.189
42305.000			-41.511			-5.189
42404.000			-41.509			-5.189
42504.000			-41.507			-5.188
42605.000			-41.506			-5.188
42704.000			-41.504			-5.188
42803.000			-41.503			-5.188
42905.000			-41.500			-5.187
43004.000			-41.499			-5.187
43104.000			-41.497			-5.187
43205.000			-41.496			-5.187
43304.000			-41.495			-5.187
43405.000			-41.494			-5.187
43503.000			-41.491			-5.186
43604.000			-41.489			-5.186
43705.000			-41.488			-5.186
43804.000			-41.486			-5.186
43904.000			-41.484			-5.186
44004.000			-41.483			-5.185
44104.000			-41.482			-5.185
44203.000			-41.481			-5.185
44305.000			-41.478			-5.185
44404.000			-41.476			-5.185
44504.000			-41.475			-5.184
44605.000			-41.474			-5.184
44703.000			-41.473			-5.184
44804.000			-41.471			-5.184
44905.000			-41.469			-5.184
45004.000			-41.469			-5.184
45104.000			-41.466			-5.183
45205.000			-41.464			-5.183
45304.000			-41.462			-5.183
45403.000			-41.461			-5.183
45505.000			-41.460			-5.183
45604.000			-41.458			-5.182
45704.000			-41.457			-5.182
45805.000			-41.455			-5.182
45904.000			-41.454			-5.182
46004.000			-41.453			-5.182
46104.000			-41.452			-5.182
46204.000			-41.450			-5.181
46304.000			-41.449			-5.181
46405.000			-41.448			-5.181
46504.000			-41.444			-5.181
46605.000			-41.443			-5.180
46704.000			-41.442			-5.180
46803.000			-41.442			-5.180
46905.000			-41.440			-5.180
47004.000			-41.438			-5.180
47104.000			-41.437			-5.180
47205.000			-41.434			-5.179
47303.000			-41.433			-5.179
47404.000			-41.432			-5.179
47505.000			-41.431			-5.179
47604.000			-41.430			-5.179
47704.000			-41.429			-5.179
47805.000			-41.426			-5.178
47904.000			-41.423			-5.178
48003.000			-41.422			-5.178
48105.000			-41.422			-5.178
48204.000			-41.421			-5.178
48304.000			-41.420			-5.177
48405.000			-41.419			-5.177
48504.000			-41.417			-5.177
48604.000			-41.416			-5.177
48704.000			-41.414			-5.177
48804.000			-41.413			-5.177
48904.000			-41.411			-5.176
49005.000			-41.410			-5.176
49104.000			-41.408			-5.176
49204.000			-41.405			-5.176
49305.000			-41.404			-5.176
49403.000			-41.402			-5.175
49504.000			-41.401			-5.175
49605.000			-41.400			-5.175
49704.000			-41.399			-5.175
49805.000			-41.397			-5.175
49904.000			-41.396			-5.174
50004.000			-41.396			-5.174
50104.000			-41.393			-5.174
50204.000			-41.392			-5.174
50304.000			-41.390			-5.174
50405.000			-41.389			-5.174
50504.000			-41.388			-5.173
50603.000			-41.386			-5.173
50705.000			-41.385			-5.173
50804.000			-41.383			-5.173
50904.000			-41.382			-5.173
51005.000			-41.382			-5.173
51104.000			-41.380			-5.173
51204.000			-41.379			-5.172
51304.000			-41.378			-5.172
51404.000			-41.375			-5.172
51504.000			-41.373			-5.172
51605.000			-41.372			-5.172
51704.000			-41.373			-5.172
51804.000			-41.372			-5.171
51905.000			-41.369			-5.171
52003.000			-41.367			-5.171
52104.000			-41.367			-5.171
52205.000			-41.365			-5.171
52304.000			-41.364			-5.170
52404.000			-41.362			-5.170
52504.000			-41.361			-5.170
52604.000			-41.359			-5.170
52704.000			-41.358			-5.170
52805.000			-41.355			-5.169
52904.000			-41.355			-5.169
53005.000			-41.354			-5.169
53104.000			-41.353			-5.169
53203.000			-41.352			-5.169
53305.000			-41.350			-5.169
53404.000			-41.349			-5.169
53504.000			-41.348			-5.169
53605.000			-41.346			-5.168
53704.000			-41.344			-5.168
53804.000			-41.345			-5.168
53904.000			-41.343			-5.168
54004.000			-41.341			-5.168
54104.000			-41.339			-5.167
54205.000			-41.338			-5.167
54304.000			-41.337			-5.167
54404.000			-41.335			-5.167
54505.000			-41.334			-5.167
54604.000			-41.333			-5.167
54704.000			-41.331			-5.166
54805.000			-41.330			-5.166
54904.000			-41.329			-5.166
55004.000			-41.328			-5.166
55104.000			-41.327			-5.166
55204.000			-41.325			-5.166
55304.000			-41.324			-5.165
55405.000			-41.322			-5.165
55504.000			-41.321			-5.165
55604.000			-41.320			-5.165
55705.000			-41.319			-5.165
55803.000			-41.318			-5.165
55904.000			-41.316			-5.164
56005.000			-41.315			-5.164
56104.000			-41.314			-5.164
56205.000			-41.313			-5.164
56304.000			-41.312			-5.164
56404.000			-41.311			-5.164
56504.000			-41.309			-5.164
56604.000			-41.307			-5.163
56704.000			-41.305			-5.163
56805.000			-41.304			-5.163
56904.000			-41.303			-5.163
57004.000			-41.303			-5.163
57105.000			-41.301			-5.163
57203.000			-41.299			-5.162
57304.000			-41.298			-5.162
57405.000			-41.297			-5.162
57504.000			-41.296			-5.162
57604.000			-41.295			-5.162
57704.000			-41.294			-5.162
57804.000			-41.293			-5.162
57903.000			-41.292			-5.161
58005.000			-41.290			-5.161
58104.000			-41.289			-5.161
58204.000			-41.286			-5.161
58305.000			-41.286			-5.161
58403.000			-41.285			-5.161
58504.000			-41.285			-5.161
58605.000			-41.284			-5.161
58704.000			-41.282			-5.160
58804.000			-41.278			-5.160
58905.000			-41.277			-5.160
59004.000			-41.277			-5.160
59103.000			-41.276			-5.160
59205.000			-41.276			-5.160
59304.000			-41.275			-5.159
59405.000			-41.273			-5.159
59504.000			-41.272			-5.159
59604.000			-41.271			-5.159
59705.000			-41.269			-5.159
59803.000			-41.268			-5.159
59904.000			-41.267			-5.158
60005.000			-41.266			-5.158
60104.000			-41.265			-5.158
60204.000			-41.263			-5.158
60305.000			-41.263			-5.158
60404.000			-41.262			-5.158
60503.000			-41.259			-5.157
60605.000			-41.258			-5.157
60704.000			-41.258			-5.157
60804.000			-41.257			-5.157
60905.000			-41.254			-5.157
61004.000			-41.253			-5.157
61104.000			-41.252			-5.156
61204.000			-41.252			-5.156
61304.000			-41.251			-5.156
61404.000			-41.249			-5.156
61505.000			-41.249			-5.156
61604.000			-41.246			-5.156
61703.000			-41.246			-5.156
61805.000			-41.246			-5.156
61904.000			-41.244			-5.155
62004.000			-41.243			-5.155
62105.000			-41.242			-5.155
62204.000			-41.240			-5.155
62304.000			-41.240			-5.155
62404.000			-41.237			-5.155
62504.000			-41.236			-5.155
62605.000			-41.236			-5.154
62704.000			-41.234			-5.154
62804.000			-41.233			-5.154
62905.000			-41.232			-5.154
63004.000			-41.233			-5.154
63103.000			-41.229			-5.154
63205.000			-41.228			-5.153
63304.000			-41.227			-5.153
63404.000			-41.226			-5.153
63505.000			-41.227			-5.153
63603.000			-41.225			-5.153
63704.000			-41.223			-5.153
63805.000			-41.221			-5.153
63904.000			-41.221			-5.153
64004.000			-41.220			-5.153
64105.000			-41.220			-5.153
64204.000			-41.219			-5.152
64303.000			-41.217			-5.152
64405.000			-41.215			-5.152
64504.000			-41.215			-5.152
64604.000			-41.214			-5.152
64705.000			-41.212			-5.152
64804.000			-41.211			-5.151
64904.000			-41.210			-5.151
65004.000			-41.208			-5.151
65104.000			-41.207			-5.151
65204.000			-41.206			-5.151
65305.000			-41.205			-5.151
65404.000			-41.204			-5.150
65503.000			-41.204			-5.150
65605.000			-41.203			-5.150
65704.000			-41.202			-5.150
65805.000			-41.200			-5.150
65904.000			-41.200			-5.150
66004.000			-41.197			-5.150
66105.000			-41.195			-5.149
66203.000			-41.196			-5.149
66304.000			-41.195			-5.149
66405.000			-41.193			-5.149
66504.000			-41.192			-5.149
66604.000			-41.191			-5.149
66705.000			-41.190			-5.149
66804.000			-41.189			-5.149
66903.000			-41.189			-5.149
67005.000			-41.187			-5.148
67104.000			-41.186			-5.148
67204.000			-41.185			-5.148
67305.000			-41.184			-5.148
67404.000			-41.183			-5.148
67504.000			-41.181			-5.148
67604.000			-41.180			-5.148
67704.000			-41.180			-5.147
67804.000			-41.180			-5.147
67905.000			-41.178			-5.147
68004.000			-41.176			-5.147
68104.000			-41.174			-5.147
68205.000			-41.174			-5.147
68303.000			-41.172			-5.147
68404.000			-41.171			-5.146
68505.000			-41.171			-5.146
68604.000			-41.169			-5.146
68704.000			-41.169			-5.146
