# Acquired on 10/01/2024 13:46:36 
# SPIDER: Creep_5mm_07714532B-2
# CREEP MEASUREMENT

# time [ms]		force [N]		stiffness [N/mm]
1.000			-16.067			-3.213
101.000			-16.983			-3.397
200.000			-17.285			-3.457
300.000			-17.257			-3.451
401.000			-17.174			-3.435
501.000			-17.107			-3.421
601.000			-17.006			-3.401
701.000			-16.966			-3.393
800.000			-16.929			-3.386
900.000			-16.898			-3.380
1001.000			-16.868			-3.374
1100.000			-16.841			-3.368
1200.000			-16.816			-3.363
1302.000			-16.793			-3.359
1401.000			-16.750			-3.350
1500.000			-16.731			-3.346
1601.000			-16.714			-3.343
1700.000			-16.697			-3.339
1800.000			-16.681			-3.336
1901.000			-16.665			-3.333
2001.000			-16.650			-3.330
2101.000			-16.623			-3.325
2201.000			-16.610			-3.322
2300.000			-16.598			-3.320
2400.000			-16.586			-3.317
2500.000			-16.574			-3.315
2600.000			-16.564			-3.313
2701.000			-16.553			-3.311
2801.000			-16.533			-3.307
2901.000			-16.524			-3.305
3001.000			-16.514			-3.303
3100.000			-16.504			-3.301
3200.000			-16.496			-3.299
3301.000			-16.487			-3.297
3400.000			-16.479			-3.296
3500.000			-16.471			-3.294
3602.000			-16.453			-3.291
3701.000			-16.447			-3.289
3800.000			-16.441			-3.288
3901.000			-16.433			-3.287
4000.000			-16.425			-3.285
4100.000			-16.418			-3.284
4201.000			-16.411			-3.282
4301.000			-16.398			-3.280
4401.000			-16.392			-3.278
4501.000			-16.387			-3.277
4600.000			-16.381			-3.276
4700.000			-16.374			-3.275
4801.000			-16.367			-3.273
4900.000			-16.362			-3.272
5000.000			-16.351			-3.270
5102.000			-16.345			-3.269
5201.000			-16.339			-3.268
5300.000			-16.334			-3.267
5401.000			-16.331			-3.266
5500.000			-16.325			-3.265
5600.000			-16.319			-3.264
5700.000			-16.309			-3.262
5800.000			-16.304			-3.261
5902.000			-16.300			-3.260
6000.000			-16.296			-3.259
6100.000			-16.291			-3.258
6201.000			-16.286			-3.257
6300.000			-16.282			-3.256
6400.000			-16.277			-3.255
6501.000			-16.269			-3.254
6601.000			-16.265			-3.253
6701.000			-16.260			-3.252
6801.000			-16.256			-3.251
6900.000			-16.252			-3.250
7000.000			-16.248			-3.250
7101.000			-16.244			-3.249
7200.000			-16.237			-3.247
7300.000			-16.233			-3.247
7402.000			-16.230			-3.246
7501.000			-16.225			-3.245
7600.000			-16.222			-3.244
7701.000			-16.218			-3.244
7800.000			-16.214			-3.243
7900.000			-16.207			-3.241
8001.000			-16.204			-3.241
8101.000			-16.202			-3.240
8201.000			-16.196			-3.239
8301.000			-16.193			-3.239
8400.000			-16.190			-3.238
8500.000			-16.187			-3.237
8601.000			-16.181			-3.236
8700.000			-16.178			-3.236
8800.000			-16.174			-3.235
8902.000			-16.172			-3.234
9001.000			-16.170			-3.234
9101.000			-16.166			-3.233
9200.000			-16.163			-3.233
9300.000			-16.161			-3.232
9401.000			-16.154			-3.231
9500.000			-16.150			-3.230
9600.000			-16.147			-3.229
9702.000			-16.144			-3.229
9801.000			-16.142			-3.228
9900.000			-16.139			-3.228
10001.000			-16.136			-3.227
10100.000			-16.131			-3.226
10200.000			-16.128			-3.226
10301.000			-16.126			-3.225
10401.000			-16.123			-3.225
10501.000			-16.120			-3.224
10601.000			-16.118			-3.224
10700.000			-16.115			-3.223
10800.000			-16.110			-3.222
10901.000			-16.108			-3.222
11000.000			-16.105			-3.221
11100.000			-16.103			-3.221
11202.000			-16.100			-3.220
11301.000			-16.097			-3.219
11400.000			-16.095			-3.219
11501.000			-16.092			-3.218
11600.000			-16.088			-3.218
11700.000			-16.086			-3.217
11801.000			-16.083			-3.217
11900.000			-16.081			-3.216
12002.000			-16.079			-3.216
12101.000			-16.077			-3.215
12200.000			-16.074			-3.215
12301.000			-16.069			-3.214
12400.000			-16.067			-3.213
12500.000			-16.066			-3.213
12601.000			-16.063			-3.213
12700.000			-16.062			-3.212
12801.000			-16.059			-3.212
12902.000			-16.057			-3.211
13000.000			-16.052			-3.210
13100.000			-16.050			-3.210
13201.000			-16.048			-3.210
13300.000			-16.046			-3.209
13400.000			-16.045			-3.209
13501.000			-16.043			-3.209
13601.000			-16.040			-3.208
13700.000			-16.036			-3.207
13801.000			-16.034			-3.207
13900.000			-16.032			-3.206
14000.000			-16.029			-3.206
14101.000			-16.027			-3.205
14200.000			-16.026			-3.205
14301.000			-16.025			-3.205
14402.000			-16.022			-3.204
14500.000			-16.018			-3.204
14600.000			-16.018			-3.204
14701.000			-16.015			-3.203
14800.000			-16.013			-3.203
14900.000			-16.010			-3.202
15001.000			-16.008			-3.202
15101.000			-16.006			-3.201
15202.000			-16.004			-3.201
15300.000			-16.002			-3.200
15400.000			-16.000			-3.200
15501.000			-15.998			-3.200
15600.000			-15.996			-3.199
15700.000			-15.995			-3.199
15801.000			-15.994			-3.199
15901.000			-15.989			-3.198
16001.000			-15.988			-3.198
16101.000			-15.985			-3.197
16200.000			-15.984			-3.197
16300.000			-15.983			-3.197
16401.000			-15.981			-3.196
16500.000			-15.979			-3.196
16600.000			-15.978			-3.196
16702.000			-15.975			-3.195
16801.000			-15.973			-3.195
16900.000			-15.972			-3.194
17001.000			-15.969			-3.194
17100.000			-15.969			-3.194
17200.000			-15.967			-3.193
17301.000			-15.965			-3.193
17400.000			-15.962			-3.192
17500.000			-15.960			-3.192
17602.000			-15.958			-3.192
17701.000			-15.957			-3.191
17800.000			-15.955			-3.191
17901.000			-15.953			-3.191
18000.000			-15.952			-3.190
18100.000			-15.949			-3.190
18201.000			-15.947			-3.189
18300.000			-15.947			-3.189
18402.000			-15.945			-3.189
18501.000			-15.943			-3.189
18600.000			-15.943			-3.189
18701.000			-15.942			-3.188
18800.000			-15.938			-3.188
18900.000			-15.936			-3.187
19001.000			-15.934			-3.187
19100.000			-15.932			-3.186
19201.000			-15.930			-3.186
19302.000			-15.930			-3.186
19400.000			-15.928			-3.186
19500.000			-15.926			-3.185
19601.000			-15.925			-3.185
19700.000			-15.923			-3.185
19800.000			-15.922			-3.184
19901.000			-15.921			-3.184
20001.000			-15.919			-3.184
20101.000			-15.918			-3.184
20201.000			-15.916			-3.183
20300.000			-15.913			-3.183
20400.000			-15.912			-3.182
20501.000			-15.910			-3.182
20600.000			-15.911			-3.182
20700.000			-15.908			-3.182
20802.000			-15.906			-3.181
20901.000			-15.906			-3.181
21000.000			-15.903			-3.181
21101.000			-15.902			-3.180
21200.000			-15.901			-3.180
21300.000			-15.900			-3.180
21401.000			-15.898			-3.180
21500.000			-15.896			-3.179
21602.000			-15.895			-3.179
21701.000			-15.894			-3.179
21800.000			-15.892			-3.178
21901.000			-15.890			-3.178
22000.000			-15.889			-3.178
22100.000			-15.888			-3.178
22201.000			-15.886			-3.177
22300.000			-15.885			-3.177
22400.000			-15.884			-3.177
22502.000			-15.881			-3.176
22601.000			-15.880			-3.176
22700.000			-15.879			-3.176
22801.000			-15.877			-3.175
22900.000			-15.877			-3.175
23000.000			-15.876			-3.175
23101.000			-15.874			-3.175
23200.000			-15.872			-3.174
23301.000			-15.871			-3.174
23402.000			-15.870			-3.174
23500.000			-15.869			-3.174
23600.000			-15.867			-3.173
23701.000			-15.866			-3.173
23800.000			-15.866			-3.173
23900.000			-15.863			-3.173
24001.000			-15.862			-3.172
24101.000			-15.861			-3.172
24201.000			-15.860			-3.172
24301.000			-15.859			-3.172
24400.000			-15.858			-3.172
24500.000			-15.857			-3.171
24601.000			-15.856			-3.171
24700.000			-15.852			-3.170
24800.000			-15.851			-3.170
24902.000			-15.851			-3.170
25001.000			-15.850			-3.170
25101.000			-15.848			-3.170
25200.000			-15.847			-3.169
25300.000			-15.847			-3.169
25401.000			-15.845			-3.169
25500.000			-15.843			-3.169
25600.000			-15.841			-3.168
25702.000			-15.840			-3.168
25801.000			-15.840			-3.168
25900.000			-15.839			-3.168
26001.000			-15.838			-3.168
26100.000			-15.835			-3.167
26200.000			-15.835			-3.167
26301.000			-15.834			-3.167
26400.000			-15.832			-3.166
26501.000			-15.833			-3.167
26602.000			-15.831			-3.166
26700.000			-15.829			-3.166
26800.000			-15.827			-3.165
26901.000			-15.826			-3.165
27000.000			-15.826			-3.165
27100.000			-15.824			-3.165
27201.000			-15.823			-3.165
27301.000			-15.822			-3.164
27401.000			-15.821			-3.164
27501.000			-15.820			-3.164
27600.000			-15.819			-3.164
27700.000			-15.818			-3.164
27801.000			-15.816			-3.163
27900.000			-15.816			-3.163
28000.000			-15.815			-3.163
28102.000			-15.814			-3.163
28201.000			-15.812			-3.162
28302.000			-15.810			-3.162
28400.000			-15.809			-3.162
28500.000			-15.809			-3.162
28601.000			-15.809			-3.162
28700.000			-15.807			-3.161
28800.000			-15.806			-3.161
28901.000			-15.804			-3.161
29001.000			-15.802			-3.160
29101.000			-15.802			-3.160
29201.000			-15.801			-3.160
29300.000			-15.800			-3.160
29400.000			-15.799			-3.160
29501.000			-15.798			-3.160
29600.000			-15.798			-3.160
29700.000			-15.796			-3.159
29802.000			-15.794			-3.159
29901.000			-15.793			-3.159
30000.000			-15.792			-3.158
30101.000			-15.792			-3.158
30200.000			-15.791			-3.158
30300.000			-15.790			-3.158
30401.000			-15.789			-3.158
30500.000			-15.786			-3.157
30601.000			-15.786			-3.157
30702.000			-15.786			-3.157
30800.000			-15.785			-3.157
30900.000			-15.784			-3.157
31001.000			-15.782			-3.156
31100.000			-15.782			-3.156
31200.000			-15.781			-3.156
31300.000			-15.780			-3.156
31401.000			-15.779			-3.156
31502.000			-15.778			-3.156
31600.000			-15.777			-3.155
31700.000			-15.776			-3.155
31801.000			-15.776			-3.155
31900.000			-15.773			-3.155
32000.000			-15.771			-3.154
32101.000			-15.771			-3.154
32201.000			-15.771			-3.154
32301.000			-15.770			-3.154
32401.000			-15.769			-3.154
32500.000			-15.768			-3.154
32600.000			-15.767			-3.153
32701.000			-15.766			-3.153
32800.000			-15.766			-3.153
32900.000			-15.765			-3.153
33002.000			-15.764			-3.153
33101.000			-15.762			-3.152
33200.000			-15.762			-3.152
33301.000			-15.761			-3.152
33400.000			-15.760			-3.152
33500.000			-15.759			-3.152
33601.000			-15.757			-3.151
33700.000			-15.757			-3.151
33801.000			-15.757			-3.151
33902.000			-15.755			-3.151
34000.000			-15.753			-3.151
34100.000			-15.753			-3.151
34201.000			-15.753			-3.151
34300.000			-15.751			-3.150
34400.000			-15.750			-3.150
34500.000			-15.750			-3.150
34601.000			-15.748			-3.150
34702.000			-15.747			-3.149
34800.000			-15.747			-3.149
34900.000			-15.746			-3.149
35001.000			-15.745			-3.149
35100.000			-15.743			-3.149
35200.000			-15.743			-3.149
35301.000			-15.743			-3.149
35401.000			-15.742			-3.148
35501.000			-15.740			-3.148
35601.000			-15.739			-3.148
35700.000			-15.737			-3.147
35800.000			-15.737			-3.147
35901.000			-15.737			-3.147
36000.000			-15.737			-3.147
36100.000			-15.737			-3.147
36202.000			-15.735			-3.147
36301.000			-15.733			-3.147
36400.000			-15.733			-3.147
36501.000			-15.732			-3.146
36600.000			-15.732			-3.146
36700.000			-15.731			-3.146
36801.000			-15.730			-3.146
36900.000			-15.729			-3.146
37001.000			-15.727			-3.145
37102.000			-15.726			-3.145
37200.000			-15.726			-3.145
37300.000			-15.726			-3.145
37401.000			-15.724			-3.145
37500.000			-15.723			-3.145
37600.000			-15.722			-3.144
37700.000			-15.722			-3.144
37801.000			-15.721			-3.144
37902.000			-15.720			-3.144
38001.000			-15.720			-3.144
38100.000			-15.719			-3.144
38201.000			-15.718			-3.144
38300.000			-15.718			-3.144
38400.000			-15.717			-3.143
38501.000			-15.715			-3.143
38601.000			-15.715			-3.143
38701.000			-15.715			-3.143
38802.000			-15.713			-3.143
38900.000			-15.712			-3.142
39000.000			-15.711			-3.142
39101.000			-15.710			-3.142
39200.000			-15.710			-3.142
39300.000			-15.709			-3.142
39402.000			-15.708			-3.142
39501.000			-15.707			-3.141
39601.000			-15.707			-3.141
39701.000			-15.706			-3.141
39800.000			-15.706			-3.141
39900.000			-15.705			-3.141
40001.000			-15.704			-3.141
40100.000			-15.703			-3.141
40201.000			-15.702			-3.140
40302.000			-15.701			-3.140
40401.000			-15.701			-3.140
40500.000			-15.700			-3.140
40601.000			-15.699			-3.140
40700.000			-15.698			-3.140
40800.000			-15.697			-3.139
40900.000			-15.696			-3.139
41000.000			-15.696			-3.139
41102.000			-15.695			-3.139
41201.000			-15.695			-3.139
41300.000			-15.694			-3.139
41401.000			-15.692			-3.138
41500.000			-15.693			-3.139
41600.000			-15.692			-3.138
41701.000			-15.691			-3.138
41801.000			-15.690			-3.138
41901.000			-15.690			-3.138
42002.000			-15.689			-3.138
42100.000			-15.688			-3.138
42200.000			-15.687			-3.137
42301.000			-15.686			-3.137
42400.000			-15.686			-3.137
42500.000			-15.686			-3.137
42601.000			-15.685			-3.137
42701.000			-15.684			-3.137
42801.000			-15.683			-3.137
42901.000			-15.682			-3.136
43000.000			-15.681			-3.136
43100.000			-15.680			-3.136
43201.000			-15.679			-3.136
43300.000			-15.679			-3.136
43400.000			-15.679			-3.136
43502.000			-15.678			-3.136
43601.000			-15.677			-3.135
43700.000			-15.677			-3.135
43801.000			-15.676			-3.135
43900.000			-15.674			-3.135
44000.000			-15.675			-3.135
44100.000			-15.674			-3.135
44200.000			-15.673			-3.135
44302.000			-15.673			-3.135
44401.000			-15.671			-3.134
44500.000			-15.670			-3.134
44601.000			-15.670			-3.134
44700.000			-15.669			-3.134
44800.000			-15.670			-3.134
44901.000			-15.669			-3.134
45000.000			-15.667			-3.133
45100.000			-15.667			-3.133
45202.000			-15.665			-3.133
45301.000			-15.665			-3.133
45400.000			-15.664			-3.133
45501.000			-15.663			-3.133
45600.000			-15.663			-3.133
45700.000			-15.663			-3.133
45801.000			-15.662			-3.132
45900.000			-15.661			-3.132
46001.000			-15.660			-3.132
46102.000			-15.660			-3.132
46200.000			-15.659			-3.132
46300.000			-15.657			-3.131
46401.000			-15.657			-3.131
46500.000			-15.657			-3.131
46600.000			-15.657			-3.131
46701.000			-15.655			-3.131
46801.000			-15.654			-3.131
46901.000			-15.654			-3.131
47001.000			-15.654			-3.131
47100.000			-15.654			-3.131
47200.000			-15.652			-3.130
47300.000			-15.652			-3.130
47400.000			-15.651			-3.130
47501.000			-15.650			-3.130
47601.000			-15.650			-3.130
47701.000			-15.649			-3.130
47801.000			-15.649			-3.130
47900.000			-15.649			-3.130
48000.000			-15.648			-3.130
48101.000			-15.647			-3.129
48200.000			-15.646			-3.129
48300.000			-15.646			-3.129
48402.000			-15.645			-3.129
48501.000			-15.644			-3.129
48601.000			-15.644			-3.129
48701.000			-15.644			-3.129
48800.000			-15.642			-3.128
48900.000			-15.641			-3.128
49001.000			-15.640			-3.128
49100.000			-15.639			-3.128
49200.000			-15.640			-3.128
49302.000			-15.639			-3.128
49401.000			-15.639			-3.128
49500.000			-15.638			-3.128
49601.000			-15.637			-3.127
49700.000			-15.636			-3.127
49800.000			-15.636			-3.127
49901.000			-15.635			-3.127
50000.000			-15.635			-3.127
50101.000			-15.634			-3.127
50202.000			-15.633			-3.127
50300.000			-15.632			-3.126
50400.000			-15.632			-3.126
50500.000			-15.631			-3.126
50600.000			-15.631			-3.126
50701.000			-15.631			-3.126
50801.000			-15.630			-3.126
50901.000			-15.628			-3.126
51002.000			-15.629			-3.126
51100.000			-15.628			-3.126
51200.000			-15.628			-3.126
51301.000			-15.627			-3.125
51400.000			-15.626			-3.125
51500.000			-15.625			-3.125
51601.000			-15.624			-3.125
51701.000			-15.623			-3.125
51801.000			-15.622			-3.124
51901.000			-15.623			-3.125
52000.000			-15.623			-3.125
52100.000			-15.621			-3.124
52201.000			-15.620			-3.124
52300.000			-15.619			-3.124
52400.000			-15.619			-3.124
52502.000			-15.619			-3.124
52601.000			-15.618			-3.124
52700.000			-15.618			-3.124
52801.000			-15.618			-3.124
52900.000			-15.617			-3.123
53000.000			-15.617			-3.123
53101.000			-15.616			-3.123
53201.000			-15.616			-3.123
53301.000			-15.615			-3.123
53402.000			-15.615			-3.123
53500.000			-15.614			-3.123
53600.000			-15.613			-3.123
53700.000			-15.613			-3.123
53800.000			-15.612			-3.122
53901.000			-15.611			-3.122
54001.000			-15.610			-3.122
54101.000			-15.610			-3.122
54202.000			-15.609			-3.122
54300.000			-15.609			-3.122
54400.000			-15.608			-3.122
54501.000			-15.606			-3.121
54600.000			-15.607			-3.121
54700.000			-15.607			-3.121
54802.000			-15.606			-3.121
54901.000			-15.606			-3.121
55001.000			-15.606			-3.121
55101.000			-15.604			-3.121
55200.000			-15.603			-3.121
55300.000			-15.603			-3.121
55401.000			-15.602			-3.120
55500.000			-15.601			-3.120
55601.000			-15.601			-3.120
55702.000			-15.601			-3.120
55801.000			-15.600			-3.120
55900.000			-15.599			-3.120
56001.000			-15.598			-3.120
56100.000			-15.597			-3.119
56200.000			-15.597			-3.119
56301.000			-15.597			-3.119
56400.000			-15.597			-3.119
56501.000			-15.596			-3.119
56602.000			-15.596			-3.119
56700.000			-15.594			-3.119
56800.000			-15.594			-3.119
56900.000			-15.595			-3.119
57000.000			-15.594			-3.119
57101.000			-15.592			-3.118
57200.000			-15.592			-3.118
57301.000			-15.591			-3.118
57402.000			-15.591			-3.118
57500.000			-15.590			-3.118
57600.000			-15.589			-3.118
57701.000			-15.590			-3.118
57800.000			-15.590			-3.118
57900.000			-15.589			-3.118
58001.000			-15.588			-3.118
58101.000			-15.587			-3.117
58201.000			-15.587			-3.117
58301.000			-15.587			-3.117
58400.000			-15.586			-3.117
58500.000			-15.586			-3.117
58601.000			-15.586			-3.117
58700.000			-15.586			-3.117
58800.000			-15.585			-3.117
58902.000			-15.584			-3.117
59001.000			-15.584			-3.117
59101.000			-15.582			-3.116
59201.000			-15.582			-3.116
59300.000			-15.582			-3.116
59400.000			-15.582			-3.116
59501.000			-15.581			-3.116
59600.000			-15.579			-3.116
59700.000			-15.579			-3.116
59802.000			-15.579			-3.116
59901.000			-15.578			-3.116
60000.000			-15.577			-3.115
60100.000			-15.577			-3.115
60200.000			-15.577			-3.115
60301.000			-15.576			-3.115
60400.000			-15.575			-3.115
60500.000			-15.575			-3.115
60602.000			-15.575			-3.115
60701.000			-15.574			-3.115
60800.000			-15.573			-3.115
60901.000			-15.573			-3.115
61000.000			-15.572			-3.114
61100.000			-15.571			-3.114
61201.000			-15.571			-3.114
61300.000			-15.571			-3.114
61401.000			-15.569			-3.114
61502.000			-15.568			-3.114
61600.000			-15.568			-3.114
61700.000			-15.568			-3.114
61801.000			-15.568			-3.114
61900.000			-15.568			-3.114
62000.000			-15.567			-3.113
62101.000			-15.566			-3.113
62201.000			-15.566			-3.113
62301.000			-15.566			-3.113
62401.000			-15.566			-3.113
62500.000			-15.564			-3.113
62600.000			-15.564			-3.113
62701.000			-15.564			-3.113
62800.000			-15.563			-3.113
62900.000			-15.562			-3.112
63002.000			-15.562			-3.112
63101.000			-15.561			-3.112
63202.000			-15.561			-3.112
63300.000			-15.560			-3.112
63400.000			-15.560			-3.112
63501.000			-15.560			-3.112
63600.000			-15.559			-3.112
63700.000			-15.559			-3.112
63801.000			-15.558			-3.112
63901.000			-15.558			-3.112
64001.000			-15.557			-3.111
64101.000			-15.557			-3.111
64200.000			-15.557			-3.111
64300.000			-15.555			-3.111
64401.000			-15.554			-3.111
64500.000			-15.554			-3.111
64600.000			-15.554			-3.111
64702.000			-15.555			-3.111
64801.000			-15.554			-3.111
64900.000			-15.553			-3.111
65001.000			-15.553			-3.111
65100.000			-15.552			-3.110
65200.000			-15.552			-3.110
65301.000			-15.552			-3.110
65400.000			-15.550			-3.110
65501.000			-15.551			-3.110
65602.000			-15.550			-3.110
65700.000			-15.550			-3.110
65800.000			-15.549			-3.110
65901.000			-15.548			-3.110
66000.000			-15.548			-3.110
66100.000			-15.548			-3.110
66201.000			-15.547			-3.109
66301.000			-15.547			-3.109
66402.000			-15.547			-3.109
66500.000			-15.546			-3.109
66600.000			-15.545			-3.109
66701.000			-15.545			-3.109
66800.000			-15.545			-3.109
66900.000			-15.543			-3.109
67001.000			-15.543			-3.109
67101.000			-15.543			-3.109
67201.000			-15.542			-3.108
67302.000			-15.542			-3.108
67400.000			-15.541			-3.108
67500.000			-15.541			-3.108
67601.000			-15.540			-3.108
67700.000			-15.540			-3.108
67800.000			-15.540			-3.108
67901.000			-15.539			-3.108
68001.000			-15.539			-3.108
68101.000			-15.538			-3.108
68201.000			-15.537			-3.107
68300.000			-15.536			-3.107
68400.000			-15.536			-3.107
68501.000			-15.536			-3.107
68600.000			-15.536			-3.107
68700.000			-15.537			-3.107
68802.000			-15.535			-3.107
