# Acquired on 29/01/2024 16:07:22 
# SPIDER: Creep_-8mm_HM077x145x38AA-2
# CREEP MEASUREMENT

# time [ms]		force [N]		stiffness [N/mm]
1.000			42.433			-5.304
104.000			43.675			-5.459
204.000			43.996			-5.499
305.000			43.840			-5.480
403.000			43.744			-5.468
504.000			43.666			-5.458
605.000			43.597			-5.450
704.000			43.537			-5.442
805.000			43.482			-5.435
904.000			43.432			-5.429
1004.000			43.345			-5.418
1104.000			43.307			-5.413
1204.000			43.272			-5.409
1304.000			43.237			-5.405
1405.000			43.205			-5.401
1504.000			43.174			-5.397
1603.000			43.146			-5.393
1705.000			43.091			-5.386
1804.000			43.066			-5.383
1904.000			43.042			-5.380
2005.000			43.019			-5.377
2104.000			42.997			-5.375
2204.000			42.975			-5.372
2304.000			42.954			-5.369
2404.000			42.916			-5.365
2504.000			42.897			-5.362
2605.000			42.878			-5.360
2704.000			42.860			-5.357
2803.000			42.842			-5.355
2905.000			42.825			-5.353
3004.000			42.809			-5.351
3104.000			42.778			-5.347
3205.000			42.762			-5.345
3304.000			42.748			-5.343
3404.000			42.735			-5.342
3504.000			42.720			-5.340
3604.000			42.706			-5.338
3704.000			42.694			-5.337
3804.000			42.680			-5.335
3904.000			42.654			-5.332
4005.000			42.643			-5.330
4104.000			42.631			-5.329
4203.000			42.618			-5.327
4305.000			42.605			-5.326
4404.000			42.594			-5.324
4504.000			42.583			-5.323
4605.000			42.560			-5.320
4703.000			42.551			-5.319
4804.000			42.540			-5.317
4905.000			42.529			-5.316
5004.000			42.520			-5.315
5104.000			42.510			-5.314
5205.000			42.500			-5.312
5304.000			42.481			-5.310
5403.000			42.472			-5.309
5505.000			42.462			-5.308
5604.000			42.455			-5.307
5704.000			42.445			-5.306
5805.000			42.436			-5.304
5903.000			42.427			-5.303
6004.000			42.409			-5.301
6105.000			42.400			-5.300
6204.000			42.392			-5.299
6304.000			42.384			-5.298
6405.000			42.376			-5.297
6504.000			42.367			-5.296
6603.000			42.360			-5.295
6705.000			42.346			-5.293
6804.000			42.337			-5.292
6904.000			42.330			-5.291
7005.000			42.322			-5.290
7103.000			42.315			-5.289
7205.000			42.308			-5.289
7304.000			42.301			-5.288
7404.000			42.293			-5.287
7505.000			42.278			-5.285
7604.000			42.271			-5.284
7704.000			42.265			-5.283
7804.000			42.260			-5.282
7904.000			42.253			-5.282
8004.000			42.246			-5.281
8105.000			42.240			-5.280
8204.000			42.226			-5.278
8304.000			42.220			-5.277
8405.000			42.215			-5.277
8504.000			42.209			-5.276
8604.000			42.203			-5.275
8705.000			42.197			-5.275
8804.000			42.190			-5.274
8904.000			42.177			-5.272
9004.000			42.171			-5.271
9104.000			42.165			-5.271
9204.000			42.159			-5.270
9305.000			42.155			-5.269
9404.000			42.149			-5.269
9504.000			42.141			-5.268
9605.000			42.131			-5.266
9703.000			42.125			-5.266
9804.000			42.121			-5.265
9905.000			42.116			-5.265
10004.000			42.110			-5.264
10104.000			42.105			-5.263
10203.000			42.101			-5.263
10304.000			42.096			-5.262
10405.000			42.084			-5.261
10504.000			42.077			-5.260
10604.000			42.072			-5.259
10705.000			42.067			-5.258
10804.000			42.062			-5.258
10903.000			42.055			-5.257
11005.000			42.051			-5.256
11104.000			42.044			-5.255
11204.000			42.039			-5.255
11305.000			42.033			-5.254
11404.000			42.028			-5.254
11504.000			42.023			-5.253
11604.000			42.018			-5.252
11704.000			42.014			-5.252
11804.000			42.006			-5.251
11905.000			42.001			-5.250
12004.000			41.997			-5.250
12103.000			41.992			-5.249
12205.000			41.988			-5.248
12304.000			41.983			-5.248
12404.000			41.978			-5.247
12505.000			41.971			-5.246
12604.000			41.966			-5.246
12704.000			41.962			-5.245
12804.000			41.957			-5.245
12904.000			41.953			-5.244
13004.000			41.949			-5.244
13105.000			41.945			-5.243
13204.000			41.935			-5.242
13304.000			41.931			-5.241
13405.000			41.928			-5.241
13503.000			41.924			-5.240
13605.000			41.919			-5.240
13704.000			41.915			-5.239
13804.000			41.910			-5.239
13905.000			41.907			-5.238
14004.000			41.900			-5.238
14104.000			41.895			-5.237
14204.000			41.891			-5.236
14304.000			41.887			-5.236
14404.000			41.883			-5.235
14505.000			41.880			-5.235
14604.000			41.876			-5.235
14704.000			41.870			-5.234
14805.000			41.866			-5.233
14903.000			41.863			-5.233
15004.000			41.859			-5.232
15105.000			41.855			-5.232
15204.000			41.852			-5.231
15304.000			41.848			-5.231
15404.000			41.840			-5.230
15504.000			41.837			-5.230
15603.000			41.833			-5.229
15705.000			41.829			-5.229
15804.000			41.826			-5.228
15904.000			41.823			-5.228
16005.000			41.820			-5.228
16103.000			41.813			-5.227
16204.000			41.810			-5.226
16305.000			41.805			-5.226
16404.000			41.801			-5.225
16504.000			41.798			-5.225
16604.000			41.796			-5.224
16704.000			41.793			-5.224
16803.000			41.791			-5.224
16904.000			41.781			-5.223
17004.000			41.777			-5.222
17105.000			41.775			-5.222
17204.000			41.772			-5.222
17304.000			41.769			-5.221
17405.000			41.766			-5.221
17503.000			41.763			-5.220
17604.000			41.757			-5.220
17705.000			41.755			-5.219
17804.000			41.750			-5.219
17904.000			41.747			-5.218
18005.000			41.744			-5.218
18104.000			41.741			-5.218
18203.000			41.739			-5.217
18305.000			41.733			-5.217
18404.000			41.729			-5.216
18504.000			41.726			-5.216
18605.000			41.722			-5.215
18704.000			41.718			-5.215
18804.000			41.715			-5.214
18904.000			41.714			-5.214
19004.000			41.708			-5.213
19104.000			41.706			-5.213
19205.000			41.703			-5.213
19304.000			41.699			-5.212
19404.000			41.696			-5.212
19505.000			41.694			-5.212
19603.000			41.691			-5.211
19704.000			41.687			-5.211
19805.000			41.682			-5.210
19904.000			41.681			-5.210
20005.000			41.676			-5.210
20104.000			41.673			-5.209
20204.000			41.671			-5.209
20304.000			41.669			-5.209
20404.000			41.665			-5.208
20504.000			41.659			-5.207
20605.000			41.657			-5.207
20704.000			41.654			-5.207
20803.000			41.652			-5.206
20905.000			41.649			-5.206
21004.000			41.646			-5.206
21104.000			41.643			-5.205
21205.000			41.638			-5.205
21304.000			41.635			-5.204
21404.000			41.633			-5.204
21504.000			41.630			-5.204
21604.000			41.626			-5.203
21704.000			41.624			-5.203
21805.000			41.621			-5.203
21904.000			41.618			-5.202
22004.000			41.615			-5.202
22105.000			41.611			-5.201
22203.000			41.609			-5.201
22304.000			41.606			-5.201
22405.000			41.602			-5.200
22504.000			41.601			-5.200
22604.000			41.599			-5.200
22704.000			41.593			-5.199
22804.000			41.591			-5.199
22904.000			41.588			-5.199
23004.000			41.586			-5.198
23104.000			41.585			-5.198
23205.000			41.583			-5.198
23304.000			41.580			-5.198
23403.000			41.573			-5.197
23505.000			41.571			-5.196
23604.000			41.568			-5.196
23704.000			41.566			-5.196
23805.000			41.564			-5.196
23904.000			41.562			-5.195
24004.000			41.559			-5.195
24104.000			41.555			-5.194
24204.000			41.552			-5.194
24304.000			41.551			-5.194
24405.000			41.549			-5.194
24504.000			41.547			-5.193
24604.000			41.543			-5.193
24705.000			41.540			-5.192
24803.000			41.535			-5.192
24904.000			41.534			-5.192
25005.000			41.531			-5.191
25104.000			41.528			-5.191
25204.000			41.526			-5.191
25304.000			41.523			-5.190
25404.000			41.520			-5.190
25503.000			41.519			-5.190
25605.000			41.515			-5.189
25704.000			41.513			-5.189
25804.000			41.510			-5.189
25905.000			41.508			-5.188
26003.000			41.506			-5.188
26104.000			41.504			-5.188
26205.000			41.502			-5.188
26304.000			41.497			-5.187
26405.000			41.495			-5.187
26504.000			41.493			-5.187
26604.000			41.490			-5.186
26704.000			41.488			-5.186
26804.000			41.486			-5.186
26904.000			41.484			-5.185
27005.000			41.481			-5.185
27104.000			41.478			-5.185
27204.000			41.475			-5.184
27305.000			41.472			-5.184
27403.000			41.471			-5.184
27504.000			41.468			-5.184
27605.000			41.468			-5.183
27704.000			41.463			-5.183
27804.000			41.461			-5.183
27905.000			41.460			-5.182
28004.000			41.458			-5.182
28103.000			41.455			-5.182
28205.000			41.453			-5.182
28304.000			41.452			-5.181
28404.000			41.446			-5.181
28505.000			41.445			-5.181
28604.000			41.443			-5.180
28704.000			41.441			-5.180
28804.000			41.439			-5.180
28904.000			41.437			-5.180
29004.000			41.434			-5.179
29105.000			41.433			-5.179
29204.000			41.428			-5.179
29303.000			41.426			-5.178
29405.000			41.426			-5.178
29504.000			41.423			-5.178
29605.000			41.420			-5.178
29704.000			41.419			-5.177
29804.000			41.417			-5.177
29905.000			41.412			-5.177
30003.000			41.410			-5.176
30104.000			41.409			-5.176
30205.000			41.407			-5.176
30304.000			41.405			-5.176
30404.000			41.403			-5.175
30505.000			41.400			-5.175
30604.000			41.396			-5.175
30703.000			41.394			-5.174
30805.000			41.392			-5.174
30904.000			41.390			-5.174
31004.000			41.389			-5.174
31105.000			41.388			-5.173
31204.000			41.385			-5.173
31304.000			41.381			-5.173
31404.000			41.379			-5.172
31504.000			41.378			-5.172
31604.000			41.376			-5.172
31705.000			41.374			-5.172
31804.000			41.372			-5.172
31903.000			41.370			-5.171
32005.000			41.369			-5.171
32104.000			41.363			-5.170
32204.000			41.362			-5.170
32305.000			41.361			-5.170
32404.000			41.360			-5.170
32504.000			41.359			-5.170
32603.000			41.357			-5.170
32704.000			41.355			-5.169
32805.000			41.351			-5.169
32904.000			41.349			-5.169
33004.000			41.347			-5.168
33105.000			41.346			-5.168
33204.000			41.344			-5.168
33303.000			41.342			-5.168
33405.000			41.341			-5.168
33504.000			41.336			-5.167
33604.000			41.335			-5.167
33705.000			41.333			-5.167
33804.000			41.331			-5.166
33904.000			41.330			-5.166
34004.000			41.328			-5.166
34104.000			41.326			-5.166
34204.000			41.323			-5.165
34305.000			41.322			-5.165
34404.000			41.320			-5.165
34503.000			41.318			-5.165
34605.000			41.316			-5.165
34704.000			41.315			-5.164
34804.000			41.314			-5.164
34905.000			41.308			-5.164
35004.000			41.307			-5.163
35104.000			41.306			-5.163
35204.000			41.304			-5.163
35304.000			41.302			-5.163
35404.000			41.300			-5.163
35505.000			41.300			-5.162
35604.000			41.298			-5.162
35703.000			41.292			-5.162
35805.000			41.292			-5.161
35904.000			41.291			-5.161
36005.000			41.290			-5.161
36104.000			41.288			-5.161
36204.000			41.286			-5.161
36305.000			41.285			-5.161
36403.000			41.280			-5.160
36504.000			41.278			-5.160
36605.000			41.279			-5.160
36704.000			41.278			-5.160
36804.000			41.276			-5.159
36905.000			41.273			-5.159
37004.000			41.271			-5.159
37103.000			41.268			-5.158
37205.000			41.267			-5.158
37304.000			41.265			-5.158
37404.000			41.264			-5.158
37505.000			41.262			-5.158
37604.000			41.260			-5.158
37704.000			41.259			-5.157
37804.000			41.255			-5.157
37904.000			41.253			-5.157
38004.000			41.252			-5.156
38105.000			41.250			-5.156
38204.000			41.249			-5.156
38304.000			41.248			-5.156
38405.000			41.247			-5.156
38503.000			41.245			-5.156
38604.000			41.241			-5.155
38705.000			41.240			-5.155
38804.000			41.239			-5.155
38904.000			41.237			-5.155
39004.000			41.235			-5.154
39104.000			41.234			-5.154
39203.000			41.232			-5.154
39304.000			41.229			-5.154
39404.000			41.228			-5.154
39505.000			41.227			-5.153
39604.000			41.224			-5.153
39703.000			41.223			-5.153
39805.000			41.222			-5.153
39904.000			41.221			-5.153
40004.000			41.218			-5.152
40105.000			41.215			-5.152
40204.000			41.214			-5.152
40304.000			41.213			-5.152
40404.000			41.211			-5.151
40504.000			41.209			-5.151
40604.000			41.207			-5.151
40705.000			41.205			-5.151
40804.000			41.204			-5.150
40904.000			41.201			-5.150
41005.000			41.199			-5.150
41104.000			41.199			-5.150
41204.000			41.199			-5.150
41305.000			41.197			-5.150
41404.000			41.193			-5.149
41504.000			41.192			-5.149
41604.000			41.191			-5.149
41704.000			41.190			-5.149
41804.000			41.188			-5.149
41905.000			41.186			-5.148
42004.000			41.186			-5.148
42104.000			41.185			-5.148
42205.000			41.181			-5.148
42303.000			41.180			-5.147
42405.000			41.178			-5.147
42504.000			41.177			-5.147
42604.000			41.175			-5.147
42705.000			41.173			-5.147
42804.000			41.171			-5.146
42904.000			41.170			-5.146
43004.000			41.168			-5.146
43104.000			41.167			-5.146
43204.000			41.166			-5.146
43305.000			41.164			-5.145
43404.000			41.162			-5.145
43503.000			41.161			-5.145
43605.000			41.158			-5.145
43704.000			41.158			-5.145
43804.000			41.155			-5.144
43905.000			41.154			-5.144
44004.000			41.152			-5.144
44104.000			41.151			-5.144
44204.000			41.150			-5.144
44304.000			41.148			-5.143
44404.000			41.147			-5.143
44505.000			41.146			-5.143
44604.000			41.145			-5.143
44704.000			41.143			-5.143
44805.000			41.141			-5.143
44903.000			41.140			-5.143
45004.000			41.140			-5.142
45105.000			41.137			-5.142
45204.000			41.136			-5.142
45304.000			41.134			-5.142
45404.000			41.133			-5.142
45504.000			41.132			-5.141
45605.000			41.128			-5.141
45704.000			41.126			-5.141
45804.000			41.126			-5.141
45905.000			41.124			-5.141
46004.000			41.124			-5.141
46103.000			41.121			-5.140
46205.000			41.120			-5.140
46304.000			41.119			-5.140
46404.000			41.117			-5.140
46505.000			41.113			-5.139
46604.000			41.113			-5.139
46704.000			41.112			-5.139
46804.000			41.110			-5.139
46904.000			41.108			-5.139
47004.000			41.108			-5.138
47105.000			41.106			-5.138
47204.000			41.104			-5.138
47303.000			41.103			-5.138
47405.000			41.102			-5.138
47504.000			41.101			-5.138
47604.000			41.099			-5.137
47705.000			41.098			-5.137
47804.000			41.096			-5.137
47904.000			41.093			-5.137
48004.000			41.093			-5.137
48104.000			41.091			-5.136
48204.000			41.090			-5.136
48305.000			41.088			-5.136
48404.000			41.087			-5.136
48504.000			41.087			-5.136
48605.000			41.085			-5.136
48703.000			41.083			-5.135
48805.000			41.081			-5.135
48904.000			41.079			-5.135
49004.000			41.078			-5.135
49105.000			41.078			-5.135
49204.000			41.077			-5.135
49304.000			41.076			-5.134
49404.000			41.073			-5.134
49504.000			41.071			-5.134
49604.000			41.071			-5.134
49705.000			41.068			-5.134
49804.000			41.066			-5.133
49904.000			41.066			-5.133
50005.000			41.065			-5.133
50103.000			41.063			-5.133
50204.000			41.062			-5.133
50305.000			41.060			-5.133
50404.000			41.058			-5.132
50504.000			41.057			-5.132
50604.000			41.056			-5.132
50704.000			41.054			-5.132
50804.000			41.053			-5.132
50905.000			41.051			-5.131
51004.000			41.051			-5.131
51104.000			41.050			-5.131
51205.000			41.050			-5.131
51303.000			41.048			-5.131
51404.000			41.047			-5.131
51505.000			41.046			-5.131
51604.000			41.042			-5.130
51704.000			41.041			-5.130
51804.000			41.040			-5.130
51904.000			41.038			-5.130
52003.000			41.039			-5.130
52104.000			41.037			-5.130
52204.000			41.035			-5.129
52305.000			41.033			-5.129
52404.000			41.032			-5.129
52503.000			41.030			-5.129
52605.000			41.029			-5.129
52704.000			41.027			-5.128
52804.000			41.025			-5.128
52905.000			41.025			-5.128
53004.000			41.024			-5.128
53104.000			41.021			-5.128
53204.000			41.021			-5.128
53304.000			41.021			-5.128
53404.000			41.019			-5.127
53505.000			41.018			-5.127
53604.000			41.017			-5.127
53703.000			41.015			-5.127
53805.000			41.014			-5.127
53904.000			41.013			-5.127
54004.000			41.012			-5.126
54105.000			41.011			-5.126
54204.000			41.009			-5.126
54304.000			41.008			-5.126
54404.000			41.006			-5.126
54504.000			41.004			-5.125
54604.000			41.003			-5.125
54705.000			41.000			-5.125
54804.000			40.999			-5.125
54904.000			40.999			-5.125
55005.000			40.999			-5.125
55103.000			40.998			-5.125
55205.000			40.996			-5.124
55304.000			40.994			-5.124
55404.000			40.993			-5.124
55505.000			40.991			-5.124
55604.000			40.990			-5.124
55704.000			40.990			-5.124
55804.000			40.989			-5.124
55904.000			40.986			-5.123
56004.000			40.985			-5.123
56105.000			40.984			-5.123
56204.000			40.983			-5.123
56304.000			40.982			-5.123
56405.000			40.981			-5.123
56503.000			40.980			-5.123
56604.000			40.978			-5.122
56705.000			40.978			-5.122
56804.000			40.977			-5.122
56904.000			40.974			-5.122
57005.000			40.972			-5.121
57104.000			40.970			-5.121
57203.000			40.970			-5.121
57305.000			40.970			-5.121
57404.000			40.969			-5.121
57504.000			40.967			-5.121
57605.000			40.966			-5.121
57704.000			40.965			-5.121
57804.000			40.964			-5.120
57904.000			40.963			-5.120
58004.000			40.963			-5.120
58104.000			40.959			-5.120
58204.000			40.958			-5.120
58304.000			40.958			-5.120
58405.000			40.958			-5.120
58504.000			40.956			-5.119
58603.000			40.955			-5.119
58705.000			40.954			-5.119
58804.000			40.951			-5.119
58904.000			40.950			-5.119
59005.000			40.949			-5.119
59104.000			40.949			-5.119
59204.000			40.947			-5.118
59304.000			40.945			-5.118
59404.000			40.945			-5.118
59504.000			40.942			-5.118
59605.000			40.941			-5.118
59704.000			40.939			-5.117
59804.000			40.940			-5.117
59905.000			40.939			-5.117
60003.000			40.937			-5.117
60104.000			40.936			-5.117
60205.000			40.935			-5.117
60304.000			40.933			-5.117
60404.000			40.932			-5.116
60504.000			40.932			-5.116
60604.000			40.929			-5.116
60703.000			40.928			-5.116
60805.000			40.927			-5.116
60904.000			40.926			-5.116
61004.000			40.926			-5.116
61105.000			40.924			-5.116
61203.000			40.923			-5.115
61304.000			40.922			-5.115
61405.000			40.922			-5.115
61504.000			40.921			-5.115
61605.000			40.920			-5.115
61704.000			40.916			-5.114
61804.000			40.916			-5.115
61904.000			40.916			-5.114
62004.000			40.914			-5.114
62104.000			40.912			-5.114
62205.000			40.911			-5.114
62304.000			40.911			-5.114
62404.000			40.909			-5.114
62505.000			40.908			-5.113
62603.000			40.907			-5.113
62704.000			40.906			-5.113
62805.000			40.905			-5.113
62904.000			40.905			-5.113
63004.000			40.904			-5.113
63105.000			40.901			-5.113
63204.000			40.900			-5.112
63303.000			40.898			-5.112
63405.000			40.897			-5.112
63504.000			40.897			-5.112
63604.000			40.895			-5.112
63705.000			40.894			-5.112
63804.000			40.894			-5.112
63904.000			40.891			-5.111
64004.000			40.891			-5.111
64104.000			40.890			-5.111
64204.000			40.889			-5.111
64305.000			40.888			-5.111
64404.000			40.887			-5.111
64504.000			40.887			-5.111
64605.000			40.885			-5.111
64703.000			40.882			-5.110
64805.000			40.882			-5.110
64904.000			40.882			-5.110
65004.000			40.881			-5.110
65105.000			40.880			-5.110
65204.000			40.878			-5.110
65304.000			40.877			-5.110
65404.000			40.877			-5.110
65504.000			40.876			-5.109
65604.000			40.876			-5.109
65705.000			40.873			-5.109
65804.000			40.873			-5.109
65904.000			40.872			-5.109
66005.000			40.870			-5.109
66103.000			40.869			-5.109
66204.000			40.867			-5.108
66305.000			40.865			-5.108
66404.000			40.865			-5.108
66504.000			40.864			-5.108
66605.000			40.863			-5.108
66704.000			40.861			-5.108
66803.000			40.860			-5.108
66905.000			40.860			-5.108
67004.000			40.860			-5.107
67104.000			40.859			-5.107
67205.000			40.859			-5.107
67304.000			40.858			-5.107
67404.000			40.857			-5.107
67504.000			40.853			-5.107
67604.000			40.852			-5.106
67704.000			40.850			-5.106
67804.000			40.850			-5.106
67904.000			40.850			-5.106
68005.000			40.849			-5.106
68104.000			40.848			-5.106
68203.000			40.846			-5.106
68305.000			40.845			-5.106
68404.000			40.845			-5.106
68504.000			40.843			-5.105
68605.000			40.843			-5.105
68704.000			40.842			-5.105
68804.000			40.840			-5.105
68904.000			40.838			-5.105
69004.000			40.838			-5.105
69104.000			40.837			-5.105
69205.000			40.836			-5.105
69304.000			40.835			-5.104
69404.000			40.833			-5.104
69505.000			40.834			-5.104
69603.000			40.833			-5.104
69704.000			40.831			-5.104
69805.000			40.830			-5.104
69904.000			40.829			-5.104
70004.000			40.828			-5.104
70105.000			40.828			-5.103
70204.000			40.826			-5.103
70303.000			40.824			-5.103
70405.000			40.823			-5.103
70504.000			40.822			-5.103
70604.000			40.822			-5.103
70705.000			40.821			-5.103
70804.000			40.819			-5.102
70904.000			40.819			-5.102
71003.000			40.819			-5.102
71104.000			40.817			-5.102
71205.000			40.816			-5.102
