# Acquired on 29/01/2024 11:30:31 
# SPIDER: Creep_7mm_HM077x145x38AB-2
# CREEP MEASUREMENT

# time [ms]		force [N]		stiffness [N/mm]
0.000			-24.071			-3.439
105.000			-24.318			-3.474
204.000			-24.317			-3.474
304.000			-24.234			-3.462
404.000			-24.169			-3.453
504.000			-24.118			-3.445
605.000			-24.074			-3.439
704.000			-23.998			-3.428
803.000			-23.967			-3.424
905.000			-23.938			-3.420
1004.000			-23.912			-3.416
1104.000			-23.888			-3.413
1205.000			-23.865			-3.409
1304.000			-23.844			-3.406
1404.000			-23.823			-3.403
1505.000			-23.787			-3.398
1604.000			-23.770			-3.396
1704.000			-23.752			-3.393
1805.000			-23.736			-3.391
1904.000			-23.722			-3.389
2003.000			-23.707			-3.387
2105.000			-23.693			-3.385
2204.000			-23.668			-3.381
2304.000			-23.655			-3.379
2405.000			-23.642			-3.377
2504.000			-23.630			-3.376
2604.000			-23.620			-3.374
2704.000			-23.608			-3.373
2804.000			-23.596			-3.371
2904.000			-23.576			-3.368
3005.000			-23.567			-3.367
3104.000			-23.557			-3.365
3203.000			-23.547			-3.364
3305.000			-23.538			-3.363
3404.000			-23.529			-3.361
3505.000			-23.520			-3.360
3604.000			-23.503			-3.358
3704.000			-23.495			-3.356
3805.000			-23.486			-3.355
3903.000			-23.478			-3.354
4004.000			-23.471			-3.353
4105.000			-23.463			-3.352
4204.000			-23.455			-3.351
4304.000			-23.448			-3.350
4405.000			-23.434			-3.348
4504.000			-23.427			-3.347
4603.000			-23.420			-3.346
4705.000			-23.413			-3.345
4804.000			-23.407			-3.344
4904.000			-23.400			-3.343
5005.000			-23.393			-3.342
5103.000			-23.381			-3.340
5204.000			-23.375			-3.339
5305.000			-23.368			-3.338
5404.000			-23.363			-3.338
5504.000			-23.357			-3.337
5605.000			-23.350			-3.336
5704.000			-23.343			-3.335
5803.000			-23.333			-3.333
5905.000			-23.327			-3.332
6004.000			-23.322			-3.332
6104.000			-23.316			-3.331
6205.000			-23.311			-3.330
6303.000			-23.307			-3.330
6404.000			-23.301			-3.329
6505.000			-23.290			-3.327
6604.000			-23.285			-3.326
6705.000			-23.281			-3.326
6804.000			-23.276			-3.325
6904.000			-23.272			-3.325
7004.000			-23.266			-3.324
7104.000			-23.262			-3.323
7204.000			-23.252			-3.322
7305.000			-23.248			-3.321
7404.000			-23.244			-3.321
7503.000			-23.239			-3.320
7605.000			-23.235			-3.319
7704.000			-23.230			-3.319
7804.000			-23.226			-3.318
7905.000			-23.221			-3.317
8004.000			-23.213			-3.316
8104.000			-23.208			-3.315
8204.000			-23.204			-3.315
8304.000			-23.199			-3.314
8404.000			-23.195			-3.314
8505.000			-23.191			-3.313
8604.000			-23.188			-3.313
8704.000			-23.181			-3.312
8805.000			-23.177			-3.311
8904.000			-23.173			-3.310
9004.000			-23.168			-3.310
9105.000			-23.165			-3.309
9204.000			-23.161			-3.309
9304.000			-23.158			-3.308
9404.000			-23.151			-3.307
9504.000			-23.147			-3.307
9604.000			-23.144			-3.306
9704.000			-23.140			-3.306
9804.000			-23.136			-3.305
9905.000			-23.133			-3.305
10004.000			-23.130			-3.304
10103.000			-23.122			-3.303
10205.000			-23.119			-3.303
10304.000			-23.116			-3.302
10404.000			-23.113			-3.302
10505.000			-23.109			-3.301
10603.000			-23.105			-3.301
10704.000			-23.102			-3.300
10805.000			-23.096			-3.299
10904.000			-23.092			-3.299
11004.000			-23.090			-3.299
11105.000			-23.087			-3.298
11204.000			-23.083			-3.298
11303.000			-23.079			-3.297
11405.000			-23.077			-3.297
11504.000			-23.076			-3.297
11604.000			-23.068			-3.295
11705.000			-23.064			-3.295
11803.000			-23.061			-3.294
11904.000			-23.059			-3.294
12005.000			-23.056			-3.294
12104.000			-23.053			-3.293
12204.000			-23.050			-3.293
12305.000			-23.045			-3.292
12404.000			-23.043			-3.292
12503.000			-23.039			-3.291
12605.000			-23.036			-3.291
12704.000			-23.033			-3.290
12804.000			-23.030			-3.290
12905.000			-23.027			-3.290
13004.000			-23.022			-3.289
13105.000			-23.019			-3.288
13203.000			-23.017			-3.288
13304.000			-23.014			-3.288
13405.000			-23.010			-3.287
13504.000			-23.008			-3.287
13604.000			-23.007			-3.287
13704.000			-23.000			-3.286
13804.000			-22.998			-3.285
13903.000			-22.995			-3.285
14005.000			-22.992			-3.285
14104.000			-22.990			-3.284
14204.000			-22.988			-3.284
14305.000			-22.985			-3.284
14403.000			-22.982			-3.283
14504.000			-22.978			-3.283
14605.000			-22.976			-3.282
14704.000			-22.975			-3.282
14804.000			-22.971			-3.282
14905.000			-22.968			-3.281
15004.000			-22.966			-3.281
15103.000			-22.964			-3.281
15205.000			-22.959			-3.280
15304.000			-22.956			-3.279
15404.000			-22.954			-3.279
15505.000			-22.952			-3.279
15604.000			-22.950			-3.279
15704.000			-22.947			-3.278
15804.000			-22.944			-3.278
15904.000			-22.940			-3.277
16004.000			-22.938			-3.277
16104.000			-22.936			-3.277
16204.000			-22.934			-3.276
16305.000			-22.932			-3.276
16404.000			-22.929			-3.276
16503.000			-22.926			-3.275
16605.000			-22.923			-3.275
16704.000			-22.920			-3.274
16804.000			-22.918			-3.274
16905.000			-22.916			-3.274
17004.000			-22.913			-3.273
17104.000			-22.912			-3.273
17204.000			-22.910			-3.273
17304.000			-22.908			-3.273
17404.000			-22.903			-3.272
17505.000			-22.902			-3.272
17604.000			-22.900			-3.271
17704.000			-22.899			-3.271
17805.000			-22.897			-3.271
17903.000			-22.895			-3.271
18004.000			-22.891			-3.270
18105.000			-22.885			-3.269
18204.000			-22.885			-3.269
18304.000			-22.884			-3.269
18405.000			-22.882			-3.269
18504.000			-22.879			-3.268
18603.000			-22.878			-3.268
18705.000			-22.875			-3.268
18804.000			-22.871			-3.267
18904.000			-22.869			-3.267
19005.000			-22.867			-3.267
19104.000			-22.865			-3.266
19204.000			-22.863			-3.266
19303.000			-22.861			-3.266
19404.000			-22.859			-3.266
19505.000			-22.856			-3.265
19604.000			-22.854			-3.265
19704.000			-22.853			-3.265
19805.000			-22.851			-3.264
19904.000			-22.849			-3.264
20003.000			-22.847			-3.264
20105.000			-22.846			-3.264
20204.000			-22.845			-3.264
20304.000			-22.839			-3.263
20405.000			-22.837			-3.262
20504.000			-22.836			-3.262
20604.000			-22.833			-3.262
20704.000			-22.832			-3.262
20804.000			-22.831			-3.262
20904.000			-22.829			-3.261
21005.000			-22.825			-3.261
21104.000			-22.823			-3.260
21203.000			-22.822			-3.260
21305.000			-22.820			-3.260
21404.000			-22.818			-3.260
21504.000			-22.815			-3.259
21605.000			-22.813			-3.259
21704.000			-22.811			-3.259
21804.000			-22.809			-3.258
21904.000			-22.808			-3.258
22004.000			-22.807			-3.258
22104.000			-22.805			-3.258
22205.000			-22.803			-3.258
22304.000			-22.802			-3.257
22404.000			-22.797			-3.257
22505.000			-22.796			-3.257
22603.000			-22.795			-3.256
22705.000			-22.792			-3.256
22804.000			-22.790			-3.256
22904.000			-22.789			-3.256
23005.000			-22.788			-3.255
23104.000			-22.786			-3.255
23204.000			-22.783			-3.255
23304.000			-22.782			-3.255
23404.000			-22.781			-3.254
23504.000			-22.778			-3.254
23605.000			-22.776			-3.254
23704.000			-22.775			-3.254
23803.000			-22.773			-3.253
23905.000			-22.769			-3.253
24003.000			-22.768			-3.253
24104.000			-22.767			-3.252
24205.000			-22.764			-3.252
24304.000			-22.762			-3.252
24404.000			-22.762			-3.252
24504.000			-22.761			-3.252
24604.000			-22.759			-3.251
24704.000			-22.756			-3.251
24805.000			-22.756			-3.251
24904.000			-22.754			-3.251
25004.000			-22.752			-3.250
25105.000			-22.750			-3.250
25203.000			-22.748			-3.250
25304.000			-22.746			-3.249
25405.000			-22.745			-3.249
25504.000			-22.744			-3.249
25604.000			-22.742			-3.249
25704.000			-22.741			-3.249
25804.000			-22.739			-3.248
25904.000			-22.737			-3.248
26004.000			-22.734			-3.248
26104.000			-22.732			-3.247
26205.000			-22.731			-3.247
26304.000			-22.730			-3.247
26404.000			-22.729			-3.247
26505.000			-22.727			-3.247
26603.000			-22.726			-3.247
26704.000			-22.724			-3.246
26805.000			-22.722			-3.246
26904.000			-22.721			-3.246
27004.000			-22.718			-3.245
27105.000			-22.717			-3.245
27204.000			-22.716			-3.245
27303.000			-22.715			-3.245
27405.000			-22.713			-3.245
27504.000			-22.710			-3.244
27604.000			-22.710			-3.244
27705.000			-22.709			-3.244
27804.000			-22.706			-3.244
27904.000			-22.705			-3.244
28004.000			-22.703			-3.243
28104.000			-22.701			-3.243
28204.000			-22.699			-3.243
28305.000			-22.698			-3.243
28404.000			-22.696			-3.242
28504.000			-22.695			-3.242
28605.000			-22.694			-3.242
28703.000			-22.692			-3.242
28804.000			-22.691			-3.242
28905.000			-22.688			-3.241
29004.000			-22.687			-3.241
29105.000			-22.686			-3.241
29204.000			-22.685			-3.241
29304.000			-22.683			-3.240
29404.000			-22.681			-3.240
29504.000			-22.680			-3.240
29604.000			-22.679			-3.240
29705.000			-22.677			-3.240
29804.000			-22.675			-3.239
29904.000			-22.674			-3.239
30005.000			-22.673			-3.239
30103.000			-22.671			-3.239
30204.000			-22.671			-3.239
30305.000			-22.671			-3.239
30404.000			-22.668			-3.238
30504.000			-22.666			-3.238
30604.000			-22.664			-3.238
30704.000			-22.663			-3.238
30804.000			-22.662			-3.237
30905.000			-22.661			-3.237
31004.000			-22.660			-3.237
31104.000			-22.658			-3.237
31205.000			-22.657			-3.237
31303.000			-22.655			-3.236
31404.000			-22.653			-3.236
31505.000			-22.651			-3.236
31604.000			-22.651			-3.236
31704.000			-22.650			-3.236
31805.000			-22.646			-3.235
31904.000			-22.646			-3.235
32003.000			-22.645			-3.235
32105.000			-22.643			-3.235
32204.000			-22.642			-3.235
32305.000			-22.640			-3.234
32404.000			-22.639			-3.234
32503.000			-22.638			-3.234
32605.000			-22.637			-3.234
32704.000			-22.635			-3.234
32804.000			-22.634			-3.233
32905.000			-22.633			-3.233
33004.000			-22.631			-3.233
33104.000			-22.630			-3.233
33204.000			-22.629			-3.233
33304.000			-22.626			-3.232
33404.000			-22.626			-3.232
33505.000			-22.625			-3.232
33604.000			-22.622			-3.232
33704.000			-22.621			-3.232
33805.000			-22.621			-3.232
33903.000			-22.621			-3.232
34004.000			-22.618			-3.231
34105.000			-22.617			-3.231
34204.000			-22.616			-3.231
34304.000			-22.615			-3.231
34405.000			-22.614			-3.231
34504.000			-22.613			-3.230
34603.000			-22.611			-3.230
34705.000			-22.609			-3.230
34804.000			-22.608			-3.230
34904.000			-22.607			-3.230
35005.000			-22.606			-3.229
35103.000			-22.605			-3.229
35204.000			-22.605			-3.229
35305.000			-22.603			-3.229
35404.000			-22.600			-3.229
35505.000			-22.600			-3.229
35604.000			-22.598			-3.228
35704.000			-22.597			-3.228
35804.000			-22.596			-3.228
35904.000			-22.595			-3.228
36004.000			-22.593			-3.228
36105.000			-22.591			-3.227
36204.000			-22.590			-3.227
36304.000			-22.589			-3.227
36405.000			-22.588			-3.227
36503.000			-22.586			-3.227
36604.000			-22.586			-3.227
36705.000			-22.585			-3.226
36804.000			-22.583			-3.226
36904.000			-22.583			-3.226
37005.000			-22.582			-3.226
37104.000			-22.580			-3.226
37203.000			-22.579			-3.226
37305.000			-22.578			-3.225
37404.000			-22.576			-3.225
37504.000			-22.575			-3.225
37605.000			-22.575			-3.225
37704.000			-22.573			-3.225
37804.000			-22.571			-3.224
37904.000			-22.571			-3.224
38004.000			-22.570			-3.224
38104.000			-22.568			-3.224
38205.000			-22.568			-3.224
38304.000			-22.565			-3.224
38404.000			-22.565			-3.224
38505.000			-22.564			-3.223
38603.000			-22.563			-3.223
38705.000			-22.561			-3.223
38804.000			-22.560			-3.223
38904.000			-22.560			-3.223
39005.000			-22.559			-3.223
39104.000			-22.557			-3.222
39204.000			-22.555			-3.222
39304.000			-22.554			-3.222
39404.000			-22.553			-3.222
39504.000			-22.553			-3.222
39605.000			-22.552			-3.222
39704.000			-22.551			-3.222
39803.000			-22.548			-3.221
39905.000			-22.548			-3.221
40004.000			-22.547			-3.221
40104.000			-22.546			-3.221
40205.000			-22.545			-3.221
40304.000			-22.544			-3.221
40404.000			-22.543			-3.220
40504.000			-22.542			-3.220
40604.000			-22.541			-3.220
40704.000			-22.538			-3.220
40805.000			-22.537			-3.220
40904.000			-22.537			-3.220
41004.000			-22.536			-3.219
41105.000			-22.535			-3.219
41203.000			-22.534			-3.219
41304.000			-22.534			-3.219
41405.000			-22.533			-3.219
41504.000			-22.531			-3.219
41604.000			-22.530			-3.219
41704.000			-22.529			-3.218
41804.000			-22.528			-3.218
41904.000			-22.528			-3.218
42004.000			-22.526			-3.218
42104.000			-22.524			-3.218
42205.000			-22.522			-3.217
42304.000			-22.522			-3.217
42403.000			-22.522			-3.217
42505.000			-22.521			-3.217
42604.000			-22.520			-3.217
42704.000			-22.516			-3.217
42805.000			-22.516			-3.217
42904.000			-22.516			-3.217
43004.000			-22.515			-3.216
43104.000			-22.514			-3.216
43204.000			-22.513			-3.216
43304.000			-22.511			-3.216
43405.000			-22.511			-3.216
43504.000			-22.510			-3.216
43604.000			-22.509			-3.216
43705.000			-22.507			-3.215
43804.000			-22.507			-3.215
43904.000			-22.506			-3.215
44005.000			-22.505			-3.215
44104.000			-22.504			-3.215
44204.000			-22.503			-3.215
44304.000			-22.503			-3.215
44404.000			-22.501			-3.214
44504.000			-22.500			-3.214
44605.000			-22.499			-3.214
44704.000			-22.497			-3.214
44804.000			-22.496			-3.214
44905.000			-22.496			-3.214
45003.000			-22.496			-3.214
45105.000			-22.495			-3.214
45204.000			-22.493			-3.213
45304.000			-22.492			-3.213
45405.000			-22.492			-3.213
45504.000			-22.491			-3.213
45604.000			-22.489			-3.213
45704.000			-22.487			-3.212
45804.000			-22.487			-3.212
45904.000			-22.486			-3.212
46005.000			-22.485			-3.212
46104.000			-22.484			-3.212
46204.000			-22.484			-3.212
46305.000			-22.481			-3.212
46403.000			-22.480			-3.211
46504.000			-22.479			-3.211
46605.000			-22.479			-3.211
46704.000			-22.477			-3.211
46804.000			-22.476			-3.211
46905.000			-22.476			-3.211
47004.000			-22.475			-3.211
47103.000			-22.474			-3.211
47205.000			-22.473			-3.210
47304.000			-22.472			-3.210
47404.000			-22.471			-3.210
47505.000			-22.470			-3.210
47604.000			-22.470			-3.210
47704.000			-22.469			-3.210
47804.000			-22.467			-3.210
47904.000			-22.467			-3.210
48004.000			-22.466			-3.209
48104.000			-22.464			-3.209
48204.000			-22.464			-3.209
48304.000			-22.464			-3.209
48404.000			-22.462			-3.209
48503.000			-22.461			-3.209
48605.000			-22.461			-3.209
48704.000			-22.459			-3.208
48804.000			-22.458			-3.208
48905.000			-22.457			-3.208
49003.000			-22.457			-3.208
49104.000			-22.456			-3.208
49205.000			-22.455			-3.208
49304.000			-22.453			-3.208
49404.000			-22.452			-3.207
49505.000			-22.451			-3.207
49604.000			-22.451			-3.207
49703.000			-22.450			-3.207
49805.000			-22.449			-3.207
49904.000			-22.448			-3.207
50004.000			-22.447			-3.207
50105.000			-22.446			-3.207
50204.000			-22.445			-3.206
50304.000			-22.444			-3.206
50404.000			-22.443			-3.206
50504.000			-22.442			-3.206
50604.000			-22.441			-3.206
50705.000			-22.440			-3.206
50804.000			-22.440			-3.206
50904.000			-22.437			-3.205
51005.000			-22.437			-3.205
51103.000			-22.436			-3.205
51204.000			-22.436			-3.205
51305.000			-22.435			-3.205
51404.000			-22.435			-3.205
51505.000			-22.434			-3.205
51603.000			-22.433			-3.205
51704.000			-22.432			-3.205
51805.000			-22.431			-3.204
51904.000			-22.431			-3.204
52004.000			-22.430			-3.204
52105.000			-22.429			-3.204
52204.000			-22.427			-3.204
52303.000			-22.426			-3.204
52405.000			-22.426			-3.204
52504.000			-22.426			-3.204
52604.000			-22.424			-3.203
52705.000			-22.423			-3.203
52804.000			-22.421			-3.203
52904.000			-22.421			-3.203
53004.000			-22.421			-3.203
53104.000			-22.420			-3.203
53204.000			-22.418			-3.203
53305.000			-22.418			-3.203
53404.000			-22.418			-3.203
53503.000			-22.416			-3.202
53605.000			-22.416			-3.202
53704.000			-22.415			-3.202
53804.000			-22.414			-3.202
53905.000			-22.413			-3.202
54004.000			-22.412			-3.202
54104.000			-22.412			-3.202
54204.000			-22.410			-3.201
54304.000			-22.409			-3.201
54404.000			-22.408			-3.201
54504.000			-22.408			-3.201
54604.000			-22.407			-3.201
54705.000			-22.406			-3.201
54804.000			-22.406			-3.201
54903.000			-22.405			-3.201
55005.000			-22.404			-3.201
55104.000			-22.404			-3.201
55204.000			-22.403			-3.200
55305.000			-22.401			-3.200
55404.000			-22.400			-3.200
55504.000			-22.400			-3.200
55604.000			-22.398			-3.200
55704.000			-22.398			-3.200
55804.000			-22.397			-3.200
55905.000			-22.396			-3.199
56004.000			-22.395			-3.199
56104.000			-22.395			-3.199
56205.000			-22.394			-3.199
56303.000			-22.393			-3.199
56404.000			-22.392			-3.199
56505.000			-22.390			-3.199
56604.000			-22.389			-3.198
56704.000			-22.389			-3.198
56805.000			-22.389			-3.198
56904.000			-22.389			-3.198
57003.000			-22.388			-3.198
57105.000			-22.387			-3.198
57204.000			-22.385			-3.198
57304.000			-22.385			-3.198
57405.000			-22.383			-3.198
57504.000			-22.382			-3.197
57604.000			-22.382			-3.197
57703.000			-22.382			-3.197
57804.000			-22.381			-3.197
57905.000			-22.380			-3.197
58004.000			-22.379			-3.197
58104.000			-22.378			-3.197
58205.000			-22.377			-3.197
58304.000			-22.376			-3.197
58403.000			-22.375			-3.196
58505.000			-22.374			-3.196
58604.000			-22.374			-3.196
58704.000			-22.373			-3.196
58805.000			-22.373			-3.196
58904.000			-22.372			-3.196
59004.000			-22.371			-3.196
59104.000			-22.370			-3.196
59204.000			-22.370			-3.196
59304.000			-22.369			-3.196
59405.000			-22.368			-3.195
59504.000			-22.368			-3.195
59603.000			-22.367			-3.195
59705.000			-22.366			-3.195
59803.000			-22.365			-3.195
59904.000			-22.365			-3.195
60005.000			-22.364			-3.195
60104.000			-22.363			-3.195
60204.000			-22.362			-3.195
60304.000			-22.362			-3.195
60404.000			-22.361			-3.194
60504.000			-22.360			-3.194
60605.000			-22.359			-3.194
60704.000			-22.357			-3.194
60804.000			-22.356			-3.194
60905.000			-22.356			-3.194
61003.000			-22.356			-3.194
61105.000			-22.355			-3.194
61204.000			-22.355			-3.194
61304.000			-22.354			-3.193
61405.000			-22.352			-3.193
61504.000			-22.350			-3.193
61604.000			-22.351			-3.193
61704.000			-22.351			-3.193
61804.000			-22.349			-3.193
61904.000			-22.348			-3.193
62005.000			-22.347			-3.192
62104.000			-22.347			-3.192
62204.000			-22.346			-3.192
62305.000			-22.345			-3.192
62404.000			-22.344			-3.192
62504.000			-22.344			-3.192
62605.000			-22.343			-3.192
62704.000			-22.343			-3.192
62804.000			-22.342			-3.192
62904.000			-22.340			-3.191
63004.000			-22.341			-3.192
63104.000			-22.341			-3.192
63205.000			-22.340			-3.191
63304.000			-22.339			-3.191
63404.000			-22.337			-3.191
63505.000			-22.337			-3.191
63603.000			-22.336			-3.191
63704.000			-22.336			-3.191
63805.000			-22.335			-3.191
63904.000			-22.334			-3.191
64004.000			-22.334			-3.191
64104.000			-22.333			-3.190
64204.000			-22.332			-3.190
64304.000			-22.330			-3.190
64404.000			-22.329			-3.190
64504.000			-22.330			-3.190
64605.000			-22.330			-3.190
64704.000			-22.328			-3.190
64803.000			-22.327			-3.190
64905.000			-22.326			-3.189
65004.000			-22.326			-3.189
65104.000			-22.325			-3.189
65205.000			-22.324			-3.189
65304.000			-22.324			-3.189
65404.000			-22.324			-3.189
65504.000			-22.323			-3.189
65604.000			-22.322			-3.189
65704.000			-22.321			-3.189
65805.000			-22.321			-3.189
65904.000			-22.321			-3.189
66004.000			-22.320			-3.189
66105.000			-22.318			-3.188
66203.000			-22.317			-3.188
66304.000			-22.318			-3.188
66405.000			-22.317			-3.188
66504.000			-22.316			-3.188
66604.000			-22.315			-3.188
66705.000			-22.314			-3.188
66804.000			-22.313			-3.188
66903.000			-22.313			-3.188
67005.000			-22.313			-3.188
67104.000			-22.312			-3.187
67204.000			-22.311			-3.187
67305.000			-22.311			-3.187
67404.000			-22.310			-3.187
67505.000			-22.310			-3.187
67603.000			-22.309			-3.187
67704.000			-22.307			-3.187
67805.000			-22.307			-3.187
67904.000			-22.306			-3.187
68004.000			-22.306			-3.187
68105.000			-22.306			-3.187
68204.000			-22.305			-3.186
68303.000			-22.305			-3.186
68405.000			-22.304			-3.186
68504.000			-22.303			-3.186
68604.000			-22.301			-3.186
68705.000			-22.301			-3.186
