# Acquired on 25/01/2024 16:51:59 
# SPIDER: Creep_7mm_GRPCNT1454A-2
# CREEP MEASUREMENT

# time [ms]		force [N]		stiffness [N/mm]
0.000			-28.154			-4.022
104.000			-28.418			-4.060
205.000			-28.273			-4.039
304.000			-28.011			-4.002
404.000			-27.822			-3.975
505.000			-27.672			-3.953
604.000			-27.544			-3.935
704.000			-27.335			-3.905
805.000			-27.247			-3.892
904.000			-27.166			-3.881
1003.000			-27.093			-3.870
1105.000			-27.027			-3.861
1204.000			-26.963			-3.852
1305.000			-26.904			-3.843
1404.000			-26.799			-3.828
1504.000			-26.749			-3.821
1605.000			-26.704			-3.815
1704.000			-26.660			-3.809
1804.000			-26.618			-3.803
1905.000			-26.579			-3.797
2004.000			-26.542			-3.792
2104.000			-26.505			-3.786
2204.000			-26.438			-3.777
2304.000			-26.407			-3.772
2404.000			-26.375			-3.768
2505.000			-26.347			-3.764
2604.000			-26.319			-3.760
2704.000			-26.291			-3.756
2805.000			-26.263			-3.752
2903.000			-26.211			-3.744
3004.000			-26.188			-3.741
3105.000			-26.165			-3.738
3204.000			-26.142			-3.735
3304.000			-26.120			-3.731
3404.000			-26.099			-3.728
3504.000			-26.078			-3.725
3604.000			-26.037			-3.720
3705.000			-26.018			-3.717
3804.000			-25.999			-3.714
3904.000			-25.981			-3.712
4005.000			-25.962			-3.709
4103.000			-25.944			-3.706
4204.000			-25.926			-3.704
4305.000			-25.894			-3.699
4404.000			-25.877			-3.697
4505.000			-25.860			-3.694
4604.000			-25.845			-3.692
4704.000			-25.829			-3.690
4804.000			-25.814			-3.688
4904.000			-25.799			-3.686
5004.000			-25.785			-3.684
5105.000			-25.757			-3.680
5204.000			-25.742			-3.677
5303.000			-25.728			-3.675
5405.000			-25.716			-3.674
5504.000			-25.702			-3.672
5604.000			-25.689			-3.670
5705.000			-25.677			-3.668
5804.000			-25.650			-3.664
5904.000			-25.638			-3.663
6004.000			-25.627			-3.661
6104.000			-25.616			-3.659
6204.000			-25.604			-3.658
6305.000			-25.593			-3.656
6404.000			-25.581			-3.654
6504.000			-25.558			-3.651
6605.000			-25.547			-3.650
6703.000			-25.537			-3.648
6804.000			-25.527			-3.647
6905.000			-25.517			-3.645
7004.000			-25.507			-3.644
7104.000			-25.495			-3.642
7204.000			-25.476			-3.639
7304.000			-25.466			-3.638
7404.000			-25.457			-3.637
7504.000			-25.446			-3.635
7604.000			-25.437			-3.634
7705.000			-25.429			-3.633
7804.000			-25.419			-3.631
7903.000			-25.410			-3.630
8005.000			-25.393			-3.628
8104.000			-25.385			-3.626
8204.000			-25.376			-3.625
8305.000			-25.367			-3.624
8404.000			-25.360			-3.623
8504.000			-25.350			-3.621
8604.000			-25.342			-3.620
8704.000			-25.326			-3.618
8804.000			-25.318			-3.617
8905.000			-25.310			-3.616
9004.000			-25.301			-3.614
9103.000			-25.293			-3.613
9205.000			-25.286			-3.612
9304.000			-25.279			-3.611
9404.000			-25.264			-3.609
9505.000			-25.256			-3.608
9604.000			-25.248			-3.607
9704.000			-25.240			-3.606
9804.000			-25.233			-3.605
9904.000			-25.225			-3.604
10004.000			-25.219			-3.603
10105.000			-25.212			-3.602
10204.000			-25.198			-3.600
10303.000			-25.189			-3.598
10405.000			-25.183			-3.598
10504.000			-25.178			-3.597
10604.000			-25.170			-3.596
10705.000			-25.164			-3.595
10804.000			-25.157			-3.594
10905.000			-25.144			-3.592
11003.000			-25.138			-3.591
11104.000			-25.131			-3.590
11205.000			-25.126			-3.589
11304.000			-25.120			-3.589
11404.000			-25.113			-3.588
11505.000			-25.107			-3.587
11604.000			-25.096			-3.585
11703.000			-25.090			-3.584
11805.000			-25.083			-3.583
11904.000			-25.078			-3.583
12004.000			-25.073			-3.582
12105.000			-25.067			-3.581
12203.000			-25.060			-3.580
12304.000			-25.050			-3.579
12405.000			-25.046			-3.578
12504.000			-25.040			-3.577
12604.000			-25.034			-3.576
12705.000			-25.029			-3.576
12804.000			-25.024			-3.575
12903.000			-25.018			-3.574
13005.000			-25.012			-3.573
13104.000			-25.002			-3.572
13204.000			-24.997			-3.571
13305.000			-24.991			-3.570
13404.000			-24.986			-3.569
13504.000			-24.981			-3.569
13604.000			-24.976			-3.568
13704.000			-24.971			-3.567
13804.000			-24.963			-3.566
13904.000			-24.956			-3.565
14004.000			-24.952			-3.565
14105.000			-24.947			-3.564
14204.000			-24.943			-3.563
14303.000			-24.937			-3.562
14405.000			-24.933			-3.562
14504.000			-24.923			-3.560
14604.000			-24.918			-3.560
14705.000			-24.913			-3.559
14804.000			-24.909			-3.558
14904.000			-24.906			-3.558
15004.000			-24.901			-3.557
15104.000			-24.895			-3.556
15204.000			-24.887			-3.555
15305.000			-24.882			-3.555
15404.000			-24.877			-3.554
15504.000			-24.873			-3.553
15605.000			-24.868			-3.553
15703.000			-24.863			-3.552
15804.000			-24.859			-3.551
15905.000			-24.855			-3.551
16004.000			-24.847			-3.550
16104.000			-24.843			-3.549
16205.000			-24.838			-3.548
16304.000			-24.834			-3.548
16403.000			-24.829			-3.547
16505.000			-24.825			-3.546
16604.000			-24.822			-3.546
16704.000			-24.814			-3.545
16805.000			-24.809			-3.544
16904.000			-24.805			-3.544
17004.000			-24.801			-3.543
17103.000			-24.797			-3.542
17204.000			-24.793			-3.542
17305.000			-24.788			-3.541
17404.000			-24.780			-3.540
17504.000			-24.777			-3.540
17605.000			-24.773			-3.539
17704.000			-24.769			-3.538
17803.000			-24.764			-3.538
17905.000			-24.761			-3.537
18004.000			-24.758			-3.537
18104.000			-24.754			-3.536
18205.000			-24.747			-3.535
18304.000			-24.743			-3.535
18404.000			-24.739			-3.534
18504.000			-24.736			-3.534
18604.000			-24.732			-3.533
18704.000			-24.728			-3.533
18805.000			-24.724			-3.532
18904.000			-24.717			-3.531
19004.000			-24.714			-3.531
19105.000			-24.710			-3.530
19203.000			-24.706			-3.529
19304.000			-24.703			-3.529
19405.000			-24.699			-3.528
19504.000			-24.695			-3.528
19604.000			-24.688			-3.527
19705.000			-24.685			-3.526
19804.000			-24.681			-3.526
19903.000			-24.679			-3.526
20005.000			-24.675			-3.525
20104.000			-24.672			-3.525
20204.000			-24.668			-3.524
20305.000			-24.661			-3.523
20404.000			-24.658			-3.523
20505.000			-24.653			-3.522
20603.000			-24.650			-3.521
20704.000			-24.649			-3.521
20805.000			-24.645			-3.521
20904.000			-24.641			-3.520
21004.000			-24.638			-3.520
21104.000			-24.631			-3.519
21204.000			-24.627			-3.518
21304.000			-24.624			-3.518
21405.000			-24.622			-3.517
21504.000			-24.619			-3.517
21604.000			-24.617			-3.517
21705.000			-24.613			-3.516
21803.000			-24.604			-3.515
21904.000			-24.601			-3.514
22005.000			-24.598			-3.514
22104.000			-24.595			-3.514
22204.000			-24.592			-3.513
22305.000			-24.588			-3.513
22404.000			-24.585			-3.512
22503.000			-24.578			-3.511
22605.000			-24.576			-3.511
22704.000			-24.572			-3.510
22804.000			-24.570			-3.510
22905.000			-24.567			-3.510
23004.000			-24.563			-3.509
23104.000			-24.560			-3.509
23204.000			-24.557			-3.508
23304.000			-24.550			-3.507
23404.000			-24.548			-3.507
23504.000			-24.545			-3.506
23604.000			-24.542			-3.506
23705.000			-24.539			-3.506
23804.000			-24.536			-3.505
23903.000			-24.533			-3.505
24005.000			-24.527			-3.504
24104.000			-24.525			-3.504
24204.000			-24.523			-3.503
24305.000			-24.519			-3.503
24403.000			-24.516			-3.502
24504.000			-24.514			-3.502
24605.000			-24.511			-3.502
24704.000			-24.505			-3.501
24804.000			-24.503			-3.500
24905.000			-24.501			-3.500
25004.000			-24.498			-3.500
25103.000			-24.495			-3.499
25205.000			-24.492			-3.499
25304.000			-24.489			-3.498
25404.000			-24.483			-3.498
25505.000			-24.482			-3.497
25604.000			-24.479			-3.497
25704.000			-24.476			-3.497
25804.000			-24.474			-3.496
25904.000			-24.471			-3.496
26004.000			-24.469			-3.496
26105.000			-24.466			-3.495
26204.000			-24.461			-3.494
26304.000			-24.458			-3.494
26405.000			-24.455			-3.494
26503.000			-24.453			-3.493
26604.000			-24.450			-3.493
26705.000			-24.448			-3.493
26804.000			-24.446			-3.492
26905.000			-24.441			-3.492
27004.000			-24.439			-3.491
27104.000			-24.436			-3.491
27204.000			-24.433			-3.490
27304.000			-24.431			-3.490
27404.000			-24.429			-3.490
27505.000			-24.427			-3.490
27604.000			-24.422			-3.489
27703.000			-24.420			-3.489
27805.000			-24.417			-3.488
27904.000			-24.415			-3.488
28004.000			-24.413			-3.488
28105.000			-24.411			-3.487
28204.000			-24.408			-3.487
28304.000			-24.403			-3.486
28404.000			-24.401			-3.486
28504.000			-24.399			-3.486
28604.000			-24.395			-3.485
28705.000			-24.392			-3.485
28804.000			-24.390			-3.484
28904.000			-24.387			-3.484
29005.000			-24.385			-3.484
29103.000			-24.381			-3.483
29204.000			-24.379			-3.483
29305.000			-24.377			-3.482
29404.000			-24.374			-3.482
29504.000			-24.372			-3.482
29605.000			-24.370			-3.481
29704.000			-24.367			-3.481
29803.000			-24.362			-3.480
29905.000			-24.360			-3.480
30004.000			-24.358			-3.480
30105.000			-24.357			-3.480
30204.000			-24.354			-3.479
30304.000			-24.352			-3.479
30405.000			-24.348			-3.478
30503.000			-24.344			-3.478
30604.000			-24.342			-3.477
30705.000			-24.339			-3.477
30804.000			-24.337			-3.477
30904.000			-24.335			-3.476
31005.000			-24.333			-3.476
31104.000			-24.330			-3.476
31203.000			-24.328			-3.475
31305.000			-24.323			-3.475
31404.000			-24.321			-3.474
31504.000			-24.320			-3.474
31605.000			-24.319			-3.474
31703.000			-24.316			-3.474
31804.000			-24.313			-3.473
31905.000			-24.310			-3.473
32004.000			-24.307			-3.472
32104.000			-24.305			-3.472
32205.000			-24.304			-3.472
32304.000			-24.302			-3.472
32403.000			-24.299			-3.471
32505.000			-24.297			-3.471
32604.000			-24.296			-3.471
32704.000			-24.291			-3.470
32805.000			-24.290			-3.470
32904.000			-24.288			-3.470
33004.000			-24.286			-3.469
33103.000			-24.284			-3.469
33204.000			-24.282			-3.469
33305.000			-24.280			-3.469
33404.000			-24.275			-3.468
33504.000			-24.273			-3.468
33605.000			-24.272			-3.467
33704.000			-24.269			-3.467
33803.000			-24.266			-3.467
33905.000			-24.265			-3.466
34004.000			-24.264			-3.466
34104.000			-24.262			-3.466
34205.000			-24.258			-3.465
34303.000			-24.256			-3.465
34404.000			-24.254			-3.465
34505.000			-24.253			-3.465
34604.000			-24.250			-3.464
34704.000			-24.248			-3.464
34805.000			-24.246			-3.464
34904.000			-24.243			-3.463
35003.000			-24.241			-3.463
35105.000			-24.239			-3.463
35204.000			-24.238			-3.463
35304.000			-24.236			-3.462
35405.000			-24.233			-3.462
35504.000			-24.231			-3.462
35604.000			-24.229			-3.461
35704.000			-24.226			-3.461
35804.000			-24.224			-3.461
35904.000			-24.222			-3.460
36005.000			-24.220			-3.460
36104.000			-24.218			-3.460
36203.000			-24.216			-3.459
36305.000			-24.213			-3.459
36404.000			-24.210			-3.459
36505.000			-24.208			-3.458
36604.000			-24.207			-3.458
36704.000			-24.206			-3.458
36805.000			-24.203			-3.458
36903.000			-24.202			-3.457
37004.000			-24.200			-3.457
37105.000			-24.196			-3.457
37204.000			-24.194			-3.456
37304.000			-24.193			-3.456
37405.000			-24.192			-3.456
37504.000			-24.189			-3.456
37603.000			-24.186			-3.455
37705.000			-24.185			-3.455
37804.000			-24.180			-3.454
37904.000			-24.180			-3.454
38005.000			-24.178			-3.454
38104.000			-24.176			-3.454
38204.000			-24.174			-3.453
38304.000			-24.173			-3.453
38404.000			-24.171			-3.453
38504.000			-24.167			-3.452
38605.000			-24.164			-3.452
38704.000			-24.163			-3.452
38804.000			-24.161			-3.452
38905.000			-24.159			-3.451
39003.000			-24.157			-3.451
39104.000			-24.155			-3.451
39205.000			-24.151			-3.450
39304.000			-24.150			-3.450
39404.000			-24.149			-3.450
39504.000			-24.147			-3.450
39604.000			-24.143			-3.449
39703.000			-24.141			-3.449
39804.000			-24.140			-3.449
39904.000			-24.138			-3.448
40005.000			-24.135			-3.448
40104.000			-24.133			-3.448
40203.000			-24.131			-3.447
40305.000			-24.129			-3.447
40404.000			-24.128			-3.447
40504.000			-24.126			-3.447
40605.000			-24.123			-3.446
40704.000			-24.121			-3.446
40804.000			-24.120			-3.446
40904.000			-24.118			-3.445
41004.000			-24.115			-3.445
41104.000			-24.113			-3.445
41205.000			-24.112			-3.445
41304.000			-24.109			-3.444
41403.000			-24.107			-3.444
41505.000			-24.105			-3.444
41604.000			-24.103			-3.443
41704.000			-24.102			-3.443
41805.000			-24.101			-3.443
41904.000			-24.099			-3.443
42004.000			-24.098			-3.443
42104.000			-24.096			-3.442
42204.000			-24.091			-3.442
42304.000			-24.090			-3.441
42405.000			-24.089			-3.441
42504.000			-24.087			-3.441
42604.000			-24.086			-3.441
42705.000			-24.086			-3.441
42803.000			-24.083			-3.440
42905.000			-24.080			-3.440
43004.000			-24.080			-3.440
43104.000			-24.079			-3.440
43205.000			-24.076			-3.439
43304.000			-24.074			-3.439
43404.000			-24.073			-3.439
43504.000			-24.072			-3.439
43604.000			-24.069			-3.438
43704.000			-24.067			-3.438
43805.000			-24.065			-3.438
43904.000			-24.064			-3.438
44003.000			-24.062			-3.437
44105.000			-24.061			-3.437
44204.000			-24.060			-3.437
44304.000			-24.057			-3.437
44405.000			-24.056			-3.437
44504.000			-24.053			-3.436
44604.000			-24.052			-3.436
44704.000			-24.051			-3.436
44804.000			-24.049			-3.436
44904.000			-24.047			-3.435
45005.000			-24.046			-3.435
45104.000			-24.042			-3.435
45204.000			-24.041			-3.434
45305.000			-24.039			-3.434
45404.000			-24.038			-3.434
45504.000			-24.036			-3.434
45605.000			-24.034			-3.433
45704.000			-24.032			-3.433
45804.000			-24.030			-3.433
45903.000			-24.029			-3.433
46004.000			-24.026			-3.432
46105.000			-24.025			-3.432
46204.000			-24.023			-3.432
46304.000			-24.021			-3.432
46405.000			-24.020			-3.431
46504.000			-24.017			-3.431
46603.000			-24.016			-3.431
46705.000			-24.015			-3.431
46804.000			-24.014			-3.431
46904.000			-24.012			-3.430
47005.000			-24.010			-3.430
47104.000			-24.008			-3.430
47204.000			-24.005			-3.429
47304.000			-24.003			-3.429
47404.000			-24.002			-3.429
47504.000			-24.001			-3.429
47605.000			-24.001			-3.429
47704.000			-24.001			-3.429
47803.000			-23.998			-3.428
47905.000			-23.996			-3.428
48004.000			-23.994			-3.428
48104.000			-23.992			-3.427
48205.000			-23.991			-3.427
48304.000			-23.990			-3.427
48404.000			-23.989			-3.427
48504.000			-23.988			-3.427
48604.000			-23.986			-3.427
48703.000			-23.984			-3.426
48805.000			-23.983			-3.426
48904.000			-23.981			-3.426
49004.000			-23.979			-3.426
49105.000			-23.978			-3.425
49204.000			-23.978			-3.425
49305.000			-23.977			-3.425
49403.000			-23.973			-3.425
49504.000			-23.972			-3.425
49605.000			-23.971			-3.424
49704.000			-23.969			-3.424
49804.000			-23.968			-3.424
49905.000			-23.968			-3.424
50004.000			-23.967			-3.424
50103.000			-23.964			-3.423
50205.000			-23.961			-3.423
50304.000			-23.960			-3.423
50404.000			-23.959			-3.423
50505.000			-23.958			-3.423
50604.000			-23.956			-3.422
50704.000			-23.955			-3.422
50804.000			-23.953			-3.422
50904.000			-23.951			-3.422
51004.000			-23.949			-3.421
51105.000			-23.948			-3.421
51204.000			-23.947			-3.421
51304.000			-23.945			-3.421
51405.000			-23.944			-3.421
51503.000			-23.941			-3.420
51604.000			-23.939			-3.420
51705.000			-23.938			-3.420
51804.000			-23.937			-3.420
51904.000			-23.935			-3.419
52005.000			-23.931			-3.419
52104.000			-23.930			-3.419
52203.000			-23.930			-3.419
52305.000			-23.927			-3.418
52404.000			-23.926			-3.418
52505.000			-23.925			-3.418
52604.000			-23.924			-3.418
52703.000			-23.923			-3.418
52805.000			-23.922			-3.417
52904.000			-23.920			-3.417
53004.000			-23.919			-3.417
53105.000			-23.915			-3.416
53204.000			-23.914			-3.416
53304.000			-23.913			-3.416
53404.000			-23.911			-3.416
53504.000			-23.910			-3.416
53604.000			-23.909			-3.416
53705.000			-23.908			-3.415
53804.000			-23.905			-3.415
53904.000			-23.904			-3.415
54005.000			-23.903			-3.415
54103.000			-23.902			-3.415
54204.000			-23.901			-3.414
54305.000			-23.899			-3.414
54404.000			-23.898			-3.414
54504.000			-23.895			-3.414
54605.000			-23.894			-3.413
54704.000			-23.894			-3.413
54803.000			-23.892			-3.413
54905.000			-23.891			-3.413
55004.000			-23.889			-3.413
55104.000			-23.888			-3.413
55205.000			-23.886			-3.412
55304.000			-23.886			-3.412
55404.000			-23.885			-3.412
55503.000			-23.884			-3.412
55604.000			-23.881			-3.412
55705.000			-23.881			-3.412
55804.000			-23.880			-3.411
55904.000			-23.879			-3.411
56005.000			-23.877			-3.411
56104.000			-23.876			-3.411
56203.000			-23.874			-3.411
56305.000			-23.873			-3.410
56404.000			-23.872			-3.410
56504.000			-23.870			-3.410
56605.000			-23.869			-3.410
56704.000			-23.869			-3.410
56804.000			-23.867			-3.410
56904.000			-23.866			-3.409
57004.000			-23.865			-3.409
57104.000			-23.864			-3.409
57205.000			-23.863			-3.409
57304.000			-23.862			-3.409
57404.000			-23.859			-3.408
57505.000			-23.858			-3.408
57603.000			-23.856			-3.408
57704.000			-23.855			-3.408
57805.000			-23.855			-3.408
57904.000			-23.854			-3.408
58004.000			-23.852			-3.407
58105.000			-23.852			-3.407
58204.000			-23.847			-3.407
58303.000			-23.847			-3.407
58405.000			-23.847			-3.407
58504.000			-23.845			-3.406
58604.000			-23.843			-3.406
58705.000			-23.843			-3.406
58804.000			-23.842			-3.406
58905.000			-23.840			-3.406
59003.000			-23.839			-3.406
59104.000			-23.838			-3.405
59205.000			-23.836			-3.405
59304.000			-23.835			-3.405
59404.000			-23.835			-3.405
59504.000			-23.833			-3.405
59604.000			-23.831			-3.404
59703.000			-23.829			-3.404
59805.000			-23.828			-3.404
59904.000			-23.826			-3.404
60004.000			-23.826			-3.404
60105.000			-23.826			-3.404
60204.000			-23.823			-3.403
60304.000			-23.822			-3.403
60405.000			-23.820			-3.403
60504.000			-23.820			-3.403
60604.000			-23.819			-3.403
60705.000			-23.818			-3.403
60804.000			-23.818			-3.403
60903.000			-23.817			-3.402
61005.000			-23.815			-3.402
61104.000			-23.813			-3.402
61204.000			-23.812			-3.402
61305.000			-23.811			-3.402
61404.000			-23.810			-3.401
61504.000			-23.808			-3.401
61604.000			-23.807			-3.401
61704.000			-23.807			-3.401
61804.000			-23.804			-3.401
61904.000			-23.803			-3.400
62004.000			-23.802			-3.400
62105.000			-23.801			-3.400
62204.000			-23.801			-3.400
62303.000			-23.801			-3.400
62405.000			-23.799			-3.400
62504.000			-23.797			-3.400
62604.000			-23.796			-3.399
62705.000			-23.795			-3.399
62804.000			-23.795			-3.399
62904.000			-23.793			-3.399
63004.000			-23.791			-3.399
63104.000			-23.790			-3.399
63204.000			-23.789			-3.398
63305.000			-23.788			-3.398
63404.000			-23.786			-3.398
63504.000			-23.785			-3.398
63605.000			-23.784			-3.398
63703.000			-23.784			-3.398
63804.000			-23.783			-3.398
63905.000			-23.782			-3.397
64004.000			-23.779			-3.397
64104.000			-23.779			-3.397
64205.000			-23.777			-3.397
64304.000			-23.776			-3.397
64403.000			-23.775			-3.396
64505.000			-23.774			-3.396
64604.000			-23.773			-3.396
64704.000			-23.771			-3.396
64805.000			-23.769			-3.396
64904.000			-23.768			-3.395
65004.000			-23.769			-3.396
65103.000			-23.768			-3.395
65204.000			-23.768			-3.395
65305.000			-23.766			-3.395
65404.000			-23.763			-3.395
65504.000			-23.763			-3.395
65605.000			-23.760			-3.394
65704.000			-23.759			-3.394
65803.000			-23.759			-3.394
65905.000			-23.758			-3.394
66004.000			-23.757			-3.394
66104.000			-23.756			-3.394
66205.000			-23.753			-3.393
66304.000			-23.753			-3.393
66404.000			-23.751			-3.393
66504.000			-23.751			-3.393
66604.000			-23.751			-3.393
66704.000			-23.750			-3.393
66805.000			-23.747			-3.392
66904.000			-23.746			-3.392
67004.000			-23.745			-3.392
67105.000			-23.744			-3.392
67203.000			-23.744			-3.392
67304.000			-23.742			-3.392
67405.000			-23.740			-3.391
67504.000			-23.740			-3.391
67604.000			-23.738			-3.391
67705.000			-23.737			-3.391
67804.000			-23.736			-3.391
67903.000			-23.736			-3.391
68005.000			-23.734			-3.391
68104.000			-23.734			-3.391
68204.000			-23.733			-3.390
68305.000			-23.731			-3.390
68404.000			-23.730			-3.390
68505.000			-23.729			-3.390
68603.000			-23.727			-3.390
68704.000			-23.726			-3.389
68805.000			-23.725			-3.389
