# Acquired on 25/01/2024 14:24:07 
# SPIDER: Creep_-5mm_GRPCNT1454A-1
# CREEP MEASUREMENT

# time [ms]		force [N]		stiffness [N/mm]
0.000			13.764			-2.753
104.000			14.197			-2.839
204.000			14.222			-2.844
304.000			14.085			-2.817
405.000			13.980			-2.796
504.000			13.839			-2.768
603.000			13.785			-2.757
705.000			13.738			-2.748
804.000			13.695			-2.739
904.000			13.657			-2.731
1005.000			13.622			-2.724
1103.000			13.590			-2.718
1205.000			13.533			-2.707
1304.000			13.508			-2.702
1404.000			13.484			-2.697
1505.000			13.461			-2.692
1604.000			13.440			-2.688
1704.000			13.421			-2.684
1804.000			13.403			-2.681
1904.000			13.385			-2.677
2004.000			13.352			-2.670
2105.000			13.336			-2.667
2204.000			13.322			-2.664
2303.000			13.308			-2.662
2405.000			13.293			-2.659
2504.000			13.280			-2.656
2604.000			13.268			-2.654
2705.000			13.242			-2.648
2804.000			13.232			-2.646
2904.000			13.221			-2.644
3005.000			13.211			-2.642
3104.000			13.200			-2.640
3204.000			13.190			-2.638
3305.000			13.181			-2.636
3404.000			13.162			-2.632
3503.000			13.153			-2.631
3605.000			13.145			-2.629
3704.000			13.136			-2.627
3804.000			13.127			-2.625
3905.000			13.119			-2.624
4004.000			13.112			-2.622
4104.000			13.097			-2.619
4205.000			13.088			-2.618
4304.000			13.081			-2.616
4405.000			13.074			-2.615
4504.000			13.068			-2.614
4604.000			13.061			-2.612
4704.000			13.054			-2.611
4804.000			13.048			-2.610
4904.000			13.035			-2.607
5005.000			13.030			-2.606
5104.000			13.024			-2.605
5203.000			13.018			-2.604
5305.000			13.011			-2.602
5404.000			13.005			-2.601
5504.000			13.001			-2.600
5605.000			12.990			-2.598
5704.000			12.984			-2.597
5804.000			12.979			-2.596
5904.000			12.974			-2.595
6004.000			12.969			-2.594
6104.000			12.964			-2.593
6205.000			12.959			-2.592
6304.000			12.949			-2.590
6404.000			12.944			-2.589
6505.000			12.940			-2.588
6603.000			12.936			-2.587
6704.000			12.931			-2.586
6805.000			12.926			-2.585
6904.000			12.922			-2.584
7004.000			12.918			-2.584
7104.000			12.909			-2.582
7204.000			12.905			-2.581
7304.000			12.901			-2.580
7404.000			12.898			-2.580
7504.000			12.893			-2.579
7605.000			12.890			-2.578
7704.000			12.886			-2.577
7803.000			12.879			-2.576
7905.000			12.874			-2.575
8004.000			12.871			-2.574
8104.000			12.866			-2.573
8205.000			12.864			-2.573
8304.000			12.860			-2.572
8404.000			12.856			-2.571
8504.000			12.848			-2.570
8604.000			12.845			-2.569
8704.000			12.841			-2.568
8805.000			12.839			-2.568
8904.000			12.836			-2.567
9004.000			12.833			-2.567
9105.000			12.830			-2.566
9203.000			12.826			-2.565
9304.000			12.820			-2.564
9405.000			12.817			-2.563
9504.000			12.814			-2.563
9604.000			12.811			-2.562
9704.000			12.807			-2.561
9804.000			12.805			-2.561
9904.000			12.802			-2.560
10005.000			12.796			-2.559
10104.000			12.793			-2.559
10204.000			12.791			-2.558
10305.000			12.788			-2.558
10403.000			12.785			-2.557
10504.000			12.782			-2.556
10605.000			12.779			-2.556
10704.000			12.775			-2.555
10805.000			12.771			-2.554
10904.000			12.769			-2.554
11004.000			12.766			-2.553
11104.000			12.763			-2.553
11204.000			12.760			-2.552
11304.000			12.758			-2.552
11405.000			12.754			-2.551
11504.000			12.751			-2.550
11603.000			12.749			-2.550
11705.000			12.746			-2.549
11804.000			12.744			-2.549
11904.000			12.742			-2.548
12005.000			12.740			-2.548
12104.000			12.738			-2.548
12204.000			12.732			-2.546
12304.000			12.730			-2.546
12404.000			12.727			-2.545
12504.000			12.725			-2.545
12605.000			12.723			-2.545
12704.000			12.720			-2.544
12804.000			12.718			-2.544
12905.000			12.714			-2.543
13003.000			12.712			-2.542
13104.000			12.711			-2.542
13205.000			12.709			-2.542
13304.000			12.706			-2.541
13404.000			12.704			-2.541
13505.000			12.703			-2.541
13604.000			12.697			-2.539
13703.000			12.695			-2.539
13805.000			12.693			-2.539
13904.000			12.690			-2.538
14005.000			12.689			-2.538
14104.000			12.687			-2.537
14204.000			12.686			-2.537
14305.000			12.681			-2.536
14403.000			12.679			-2.536
14504.000			12.678			-2.536
14605.000			12.676			-2.535
14704.000			12.674			-2.535
14804.000			12.672			-2.534
14905.000			12.671			-2.534
15004.000			12.669			-2.534
15103.000			12.664			-2.533
15205.000			12.662			-2.532
15304.000			12.660			-2.532
15404.000			12.659			-2.532
15505.000			12.657			-2.531
15603.000			12.656			-2.531
15704.000			12.653			-2.531
15805.000			12.650			-2.530
15904.000			12.649			-2.530
16004.000			12.647			-2.529
16105.000			12.645			-2.529
16204.000			12.643			-2.529
16303.000			12.641			-2.528
16405.000			12.639			-2.528
16504.000			12.638			-2.528
16604.000			12.636			-2.527
16705.000			12.633			-2.527
16804.000			12.631			-2.526
16904.000			12.629			-2.526
17003.000			12.627			-2.525
17104.000			12.626			-2.525
17205.000			12.624			-2.525
17304.000			12.622			-2.524
17404.000			12.620			-2.524
17505.000			12.618			-2.524
17604.000			12.617			-2.523
17703.000			12.616			-2.523
17805.000			12.614			-2.523
17904.000			12.612			-2.522
18004.000			12.609			-2.522
18105.000			12.608			-2.522
18204.000			12.606			-2.521
18304.000			12.605			-2.521
18404.000			12.603			-2.521
18504.000			12.601			-2.520
18604.000			12.600			-2.520
18705.000			12.597			-2.519
18804.000			12.596			-2.519
18903.000			12.595			-2.519
19005.000			12.593			-2.519
19104.000			12.591			-2.518
19204.000			12.590			-2.518
19305.000			12.588			-2.518
19404.000			12.585			-2.517
19504.000			12.583			-2.517
19604.000			12.582			-2.516
19704.000			12.582			-2.516
19804.000			12.581			-2.516
19905.000			12.579			-2.516
20004.000			12.577			-2.515
20104.000			12.576			-2.515
20205.000			12.573			-2.515
20303.000			12.571			-2.514
20405.000			12.569			-2.514
20504.000			12.569			-2.514
20604.000			12.568			-2.514
20705.000			12.566			-2.513
20804.000			12.565			-2.513
20904.000			12.562			-2.512
21004.000			12.560			-2.512
21104.000			12.559			-2.512
21204.000			12.558			-2.512
21305.000			12.556			-2.511
21404.000			12.555			-2.511
21504.000			12.553			-2.511
21605.000			12.552			-2.510
21703.000			12.551			-2.510
21804.000			12.549			-2.510
21905.000			12.547			-2.509
22004.000			12.546			-2.509
22104.000			12.545			-2.509
22204.000			12.545			-2.509
22304.000			12.543			-2.509
22404.000			12.541			-2.508
22505.000			12.539			-2.508
22604.000			12.538			-2.508
22704.000			12.537			-2.507
22805.000			12.536			-2.507
22903.000			12.535			-2.507
23004.000			12.534			-2.507
23105.000			12.531			-2.506
23204.000			12.529			-2.506
23304.000			12.529			-2.506
23404.000			12.528			-2.506
23504.000			12.527			-2.505
23603.000			12.525			-2.505
23704.000			12.524			-2.505
23804.000			12.522			-2.504
23905.000			12.521			-2.504
24004.000			12.520			-2.504
24104.000			12.519			-2.504
24205.000			12.517			-2.503
24303.000			12.516			-2.503
24404.000			12.516			-2.503
24505.000			12.512			-2.502
24604.000			12.513			-2.503
24704.000			12.512			-2.502
24804.000			12.510			-2.502
24904.000			12.509			-2.502
25003.000			12.508			-2.502
25105.000			12.506			-2.501
25204.000			12.504			-2.501
25304.000			12.503			-2.501
25405.000			12.502			-2.500
25503.000			12.500			-2.500
25604.000			12.500			-2.500
25705.000			12.500			-2.500
25804.000			12.499			-2.500
25904.000			12.497			-2.499
26005.000			12.496			-2.499
26104.000			12.494			-2.499
26203.000			12.493			-2.499
26305.000			12.491			-2.498
26404.000			12.490			-2.498
26504.000			12.490			-2.498
26605.000			12.488			-2.498
26704.000			12.486			-2.497
26805.000			12.486			-2.497
26903.000			12.485			-2.497
27004.000			12.484			-2.497
27105.000			12.483			-2.497
27204.000			12.482			-2.496
27304.000			12.481			-2.496
27405.000			12.480			-2.496
27504.000			12.479			-2.496
27603.000			12.477			-2.495
27705.000			12.477			-2.495
27804.000			12.476			-2.495
27904.000			12.475			-2.495
28005.000			12.474			-2.495
28104.000			12.472			-2.494
28204.000			12.470			-2.494
28304.000			12.470			-2.494
28404.000			12.469			-2.494
28504.000			12.468			-2.494
28605.000			12.467			-2.493
28704.000			12.466			-2.493
28804.000			12.464			-2.493
28905.000			12.462			-2.492
29003.000			12.461			-2.492
29104.000			12.461			-2.492
29205.000			12.460			-2.492
29304.000			12.458			-2.492
29404.000			12.458			-2.492
29504.000			12.458			-2.492
29604.000			12.455			-2.491
29703.000			12.455			-2.491
29805.000			12.454			-2.491
29904.000			12.453			-2.491
30005.000			12.452			-2.490
30104.000			12.452			-2.490
30203.000			12.450			-2.490
30305.000			12.449			-2.490
30404.000			12.447			-2.489
30504.000			12.447			-2.489
30605.000			12.446			-2.489
30704.000			12.445			-2.489
30804.000			12.445			-2.489
30904.000			12.444			-2.489
31004.000			12.442			-2.488
31104.000			12.442			-2.488
31205.000			12.439			-2.488
31304.000			12.439			-2.488
31404.000			12.439			-2.488
31505.000			12.438			-2.488
31603.000			12.437			-2.487
31704.000			12.436			-2.487
31805.000			12.434			-2.487
31904.000			12.433			-2.487
32004.000			12.432			-2.486
32104.000			12.431			-2.486
32204.000			12.430			-2.486
32304.000			12.429			-2.486
32405.000			12.429			-2.486
32504.000			12.427			-2.485
32604.000			12.427			-2.485
32705.000			12.426			-2.485
32803.000			12.424			-2.485
32904.000			12.424			-2.485
33005.000			12.423			-2.485
33104.000			12.422			-2.484
33205.000			12.420			-2.484
33304.000			12.419			-2.484
33404.000			12.419			-2.484
33504.000			12.419			-2.484
33604.000			12.418			-2.484
33704.000			12.417			-2.483
33805.000			12.416			-2.483
33904.000			12.415			-2.483
34003.000			12.414			-2.483
34105.000			12.413			-2.483
34204.000			12.412			-2.482
34304.000			12.412			-2.482
34405.000			12.411			-2.482
34504.000			12.410			-2.482
34604.000			12.409			-2.482
34704.000			12.408			-2.482
34804.000			12.406			-2.481
34904.000			12.405			-2.481
35005.000			12.405			-2.481
35104.000			12.405			-2.481
35204.000			12.403			-2.481
35305.000			12.403			-2.481
35403.000			12.401			-2.480
35504.000			12.400			-2.480
35605.000			12.400			-2.480
35704.000			12.400			-2.480
35804.000			12.399			-2.480
35904.000			12.398			-2.480
36004.000			12.396			-2.479
36103.000			12.395			-2.479
36205.000			12.395			-2.479
36304.000			12.394			-2.479
36405.000			12.393			-2.479
36504.000			12.392			-2.478
36603.000			12.392			-2.478
36705.000			12.391			-2.478
36804.000			12.390			-2.478
36904.000			12.387			-2.477
37005.000			12.387			-2.477
37104.000			12.387			-2.477
37204.000			12.386			-2.477
37304.000			12.385			-2.477
37404.000			12.384			-2.477
37504.000			12.384			-2.477
37605.000			12.383			-2.477
37704.000			12.382			-2.476
37804.000			12.381			-2.476
37905.000			12.380			-2.476
38003.000			12.380			-2.476
38104.000			12.379			-2.476
38205.000			12.378			-2.476
38304.000			12.377			-2.475
38404.000			12.376			-2.475
38505.000			12.375			-2.475
38604.000			12.374			-2.475
38703.000			12.373			-2.475
38805.000			12.372			-2.474
38904.000			12.372			-2.474
39004.000			12.371			-2.474
39105.000			12.370			-2.474
39204.000			12.370			-2.474
39304.000			12.369			-2.474
39403.000			12.368			-2.474
39504.000			12.369			-2.474
39605.000			12.368			-2.474
39704.000			12.367			-2.473
39804.000			12.364			-2.473
39905.000			12.364			-2.473
40004.000			12.363			-2.473
40103.000			12.362			-2.472
40205.000			12.362			-2.472
40304.000			12.361			-2.472
40404.000			12.360			-2.472
40505.000			12.359			-2.472
40603.000			12.359			-2.472
40704.000			12.358			-2.472
40805.000			12.357			-2.471
40904.000			12.357			-2.471
41004.000			12.356			-2.471
41105.000			12.355			-2.471
41204.000			12.354			-2.471
41303.000			12.353			-2.471
41405.000			12.353			-2.471
41504.000			12.352			-2.470
41604.000			12.352			-2.470
41705.000			12.351			-2.470
41804.000			12.351			-2.470
41904.000			12.350			-2.470
42004.000			12.348			-2.470
42104.000			12.347			-2.469
42204.000			12.347			-2.469
42305.000			12.347			-2.469
42404.000			12.346			-2.469
42503.000			12.346			-2.469
42605.000			12.345			-2.469
42704.000			12.344			-2.469
42805.000			12.342			-2.468
42904.000			12.342			-2.468
43004.000			12.343			-2.469
43105.000			12.342			-2.468
43203.000			12.340			-2.468
43304.000			12.339			-2.468
43405.000			12.339			-2.468
43504.000			12.338			-2.468
43604.000			12.338			-2.468
43705.000			12.337			-2.467
43804.000			12.336			-2.467
43903.000			12.335			-2.467
44005.000			12.335			-2.467
44104.000			12.335			-2.467
44204.000			12.334			-2.467
44305.000			12.332			-2.466
44404.000			12.331			-2.466
44504.000			12.331			-2.466
44604.000			12.330			-2.466
44704.000			12.329			-2.466
44804.000			12.330			-2.466
44905.000			12.329			-2.466
45004.000			12.329			-2.466
45103.000			12.328			-2.466
45205.000			12.326			-2.465
45304.000			12.326			-2.465
45404.000			12.326			-2.465
45505.000			12.325			-2.465
45604.000			12.324			-2.465
45704.000			12.322			-2.464
45803.000			12.322			-2.464
45904.000			12.321			-2.464
46005.000			12.320			-2.464
46104.000			12.320			-2.464
46204.000			12.320			-2.464
46305.000			12.319			-2.464
46404.000			12.318			-2.464
46503.000			12.318			-2.464
46605.000			12.317			-2.463
46704.000			12.316			-2.463
46804.000			12.316			-2.463
46905.000			12.316			-2.463
47004.000			12.317			-2.463
47104.000			12.316			-2.463
47204.000			12.315			-2.463
47304.000			12.314			-2.463
47404.000			12.313			-2.463
47505.000			12.313			-2.463
47604.000			12.312			-2.462
47703.000			12.311			-2.462
47805.000			12.310			-2.462
47904.000			12.309			-2.462
48004.000			12.308			-2.462
48105.000			12.308			-2.462
48204.000			12.308			-2.462
48304.000			12.306			-2.461
48404.000			12.306			-2.461
48504.000			12.307			-2.461
48604.000			12.305			-2.461
48705.000			12.305			-2.461
48804.000			12.305			-2.461
48904.000			12.304			-2.461
49005.000			12.303			-2.461
49103.000			12.302			-2.460
49205.000			12.301			-2.460
49304.000			12.301			-2.460
49404.000			12.300			-2.460
49505.000			12.300			-2.460
49604.000			12.299			-2.460
49704.000			12.299			-2.460
49804.000			12.299			-2.460
49904.000			12.298			-2.460
50004.000			12.296			-2.459
50105.000			12.296			-2.459
50204.000			12.295			-2.459
50304.000			12.295			-2.459
50405.000			12.295			-2.459
50503.000			12.294			-2.459
50604.000			12.293			-2.459
50705.000			12.292			-2.458
50804.000			12.291			-2.458
50904.000			12.291			-2.458
51004.000			12.292			-2.458
51104.000			12.292			-2.458
51204.000			12.290			-2.458
51305.000			12.290			-2.458
51404.000			12.288			-2.458
51504.000			12.289			-2.458
51605.000			12.288			-2.458
51703.000			12.288			-2.458
51804.000			12.287			-2.457
51905.000			12.286			-2.457
52004.000			12.286			-2.457
52104.000			12.284			-2.457
52204.000			12.284			-2.457
52304.000			12.283			-2.457
52403.000			12.283			-2.457
52504.000			12.282			-2.456
52604.000			12.282			-2.456
52705.000			12.282			-2.456
52804.000			12.281			-2.456
52904.000			12.281			-2.456
53005.000			12.279			-2.456
53103.000			12.278			-2.456
53204.000			12.279			-2.456
53305.000			12.278			-2.456
53404.000			12.278			-2.456
53504.000			12.278			-2.456
53605.000			12.276			-2.455
53704.000			12.276			-2.455
53803.000			12.276			-2.455
53905.000			12.275			-2.455
54004.000			12.275			-2.455
54104.000			12.273			-2.455
54205.000			12.273			-2.455
54303.000			12.272			-2.454
54404.000			12.271			-2.454
54505.000			12.272			-2.454
54604.000			12.272			-2.454
54704.000			12.271			-2.454
54805.000			12.270			-2.454
54904.000			12.269			-2.454
55003.000			12.269			-2.454
55105.000			12.267			-2.453
55204.000			12.268			-2.454
55304.000			12.268			-2.454
55405.000			12.267			-2.453
55504.000			12.266			-2.453
55605.000			12.266			-2.453
55703.000			12.265			-2.453
55804.000			12.264			-2.453
55905.000			12.263			-2.453
56004.000			12.263			-2.453
56104.000			12.262			-2.452
56205.000			12.262			-2.452
56304.000			12.262			-2.452
56403.000			12.262			-2.452
56505.000			12.259			-2.452
56604.000			12.259			-2.452
56704.000			12.259			-2.452
56805.000			12.259			-2.452
56904.000			12.259			-2.452
57004.000			12.258			-2.452
57104.000			12.257			-2.451
57204.000			12.256			-2.451
57304.000			12.255			-2.451
57405.000			12.254			-2.451
57504.000			12.255			-2.451
57603.000			12.255			-2.451
57705.000			12.254			-2.451
57804.000			12.253			-2.451
57904.000			12.253			-2.451
58005.000			12.251			-2.450
58104.000			12.251			-2.450
58204.000			12.252			-2.450
58304.000			12.251			-2.450
58404.000			12.250			-2.450
58504.000			12.250			-2.450
58604.000			12.249			-2.450
58704.000			12.249			-2.450
58805.000			12.249			-2.450
58904.000			12.247			-2.449
59003.000			12.247			-2.449
59105.000			12.246			-2.449
59204.000			12.245			-2.449
59304.000			12.245			-2.449
59405.000			12.244			-2.449
59504.000			12.244			-2.449
59604.000			12.243			-2.449
59704.000			12.243			-2.449
59804.000			12.242			-2.448
59904.000			12.242			-2.448
60005.000			12.241			-2.448
60104.000			12.241			-2.448
60204.000			12.240			-2.448
60305.000			12.240			-2.448
60403.000			12.241			-2.448
60504.000			12.241			-2.448
60605.000			12.241			-2.448
60704.000			12.239			-2.448
60804.000			12.238			-2.448
60905.000			12.239			-2.448
61004.000			12.240			-2.448
61103.000			12.239			-2.448
61205.000			12.238			-2.448
61304.000			12.238			-2.448
61404.000			12.239			-2.448
61505.000			12.239			-2.448
61603.000			12.238			-2.448
61704.000			12.237			-2.447
61805.000			12.236			-2.447
61904.000			12.236			-2.447
62005.000			12.236			-2.447
62104.000			12.235			-2.447
62204.000			12.235			-2.447
62304.000			12.234			-2.447
62404.000			12.234			-2.447
62504.000			12.234			-2.447
62605.000			12.233			-2.447
62704.000			12.232			-2.446
62804.000			12.232			-2.446
62905.000			12.231			-2.446
63003.000			12.232			-2.446
63104.000			12.230			-2.446
63205.000			12.229			-2.446
63304.000			12.230			-2.446
63404.000			12.230			-2.446
63504.000			12.229			-2.446
63604.000			12.229			-2.446
63704.000			12.228			-2.446
63805.000			12.228			-2.446
63904.000			12.227			-2.445
64004.000			12.226			-2.445
64105.000			12.226			-2.445
64203.000			12.226			-2.445
64304.000			12.226			-2.445
64405.000			12.225			-2.445
64504.000			12.223			-2.445
64604.000			12.223			-2.445
64705.000			12.223			-2.445
64804.000			12.223			-2.445
64903.000			12.223			-2.445
65005.000			12.222			-2.444
65104.000			12.222			-2.444
65205.000			12.220			-2.444
65304.000			12.220			-2.444
65404.000			12.221			-2.444
65505.000			12.221			-2.444
65603.000			12.220			-2.444
65704.000			12.219			-2.444
65805.000			12.219			-2.444
65904.000			12.219			-2.444
66004.000			12.218			-2.444
66104.000			12.216			-2.443
66204.000			12.217			-2.443
66303.000			12.217			-2.443
66405.000			12.217			-2.443
66504.000			12.216			-2.443
66604.000			12.214			-2.443
66705.000			12.214			-2.443
66804.000			12.214			-2.443
66904.000			12.214			-2.443
67004.000			12.214			-2.443
67104.000			12.214			-2.443
67204.000			12.213			-2.443
67305.000			12.213			-2.443
67404.000			12.210			-2.442
67503.000			12.210			-2.442
67605.000			12.210			-2.442
67704.000			12.209			-2.442
67804.000			12.208			-2.442
67905.000			12.208			-2.442
68004.000			12.207			-2.441
68104.000			12.207			-2.441
68203.000			12.207			-2.441
68304.000			12.207			-2.441
68405.000			12.206			-2.441
68504.000			12.204			-2.441
68604.000			12.204			-2.441
68705.000			12.204			-2.441
68804.000			12.203			-2.441
68903.000			12.203			-2.441
69005.000			12.202			-2.440
69104.000			12.201			-2.440
69204.000			12.200			-2.440
69305.000			12.200			-2.440
69404.000			12.200			-2.440
69504.000			12.200			-2.440
69604.000			12.199			-2.440
69704.000			12.198			-2.440
69804.000			12.198			-2.440
69905.000			12.199			-2.440
70004.000			12.198			-2.440
70104.000			12.197			-2.439
70205.000			12.197			-2.439
70303.000			12.196			-2.439
70404.000			12.196			-2.439
70505.000			12.195			-2.439
70604.000			12.195			-2.439
70704.000			12.195			-2.439
70805.000			12.194			-2.439
70904.000			12.193			-2.439
71003.000			12.192			-2.438
71105.000			12.192			-2.438
71204.000			12.191			-2.438
