# Acquired on 10/01/2024 14:26:37 
# SPIDER: Creep_-5mm_07714532B-1
# CREEP MEASUREMENT

# time [ms]		force [N]		stiffness [N/mm]
1.000			13.826			-2.765
100.000			14.889			-2.978
200.000			15.346			-3.069
301.000			15.348			-3.070
400.000			15.292			-3.058
500.000			15.248			-3.050
602.000			15.210			-3.042
701.000			15.178			-3.036
800.000			15.150			-3.030
901.000			15.124			-3.025
1000.000			15.100			-3.020
1100.000			15.058			-3.012
1201.000			15.040			-3.008
1301.000			15.023			-3.005
1401.000			15.006			-3.001
1501.000			14.992			-2.998
1600.000			14.978			-2.996
1700.000			14.965			-2.993
1800.000			14.941			-2.988
1900.000			14.929			-2.986
2001.000			14.917			-2.983
2101.000			14.907			-2.981
2201.000			14.898			-2.980
2301.000			14.888			-2.978
2400.000			14.878			-2.976
2500.000			14.860			-2.972
2601.000			14.851			-2.970
2700.000			14.843			-2.969
2800.000			14.836			-2.967
2902.000			14.828			-2.966
3001.000			14.820			-2.964
3100.000			14.813			-2.963
3201.000			14.807			-2.961
3300.000			14.793			-2.959
3400.000			14.785			-2.957
3501.000			14.780			-2.956
3600.000			14.774			-2.955
3701.000			14.769			-2.954
3802.000			14.763			-2.953
3900.000			14.757			-2.951
4000.000			14.746			-2.949
4101.000			14.741			-2.948
4200.000			14.735			-2.947
4300.000			14.730			-2.946
4402.000			14.726			-2.945
4501.000			14.721			-2.944
4600.000			14.716			-2.943
4701.000			14.707			-2.941
4800.000			14.702			-2.940
4900.000			14.698			-2.940
5000.000			14.694			-2.939
5100.000			14.690			-2.938
5202.000			14.686			-2.937
5301.000			14.683			-2.937
5400.000			14.678			-2.936
5501.000			14.669			-2.934
5600.000			14.666			-2.933
5700.000			14.663			-2.933
5801.000			14.659			-2.932
5900.000			14.655			-2.931
6001.000			14.652			-2.930
6102.000			14.648			-2.930
6200.000			14.641			-2.928
6300.000			14.637			-2.927
6401.000			14.635			-2.927
6500.000			14.632			-2.926
6600.000			14.628			-2.926
6701.000			14.625			-2.925
6801.000			14.622			-2.924
6901.000			14.616			-2.923
7001.000			14.613			-2.923
7100.000			14.610			-2.922
7200.000			14.607			-2.921
7301.000			14.603			-2.921
7400.000			14.600			-2.920
7501.000			14.598			-2.920
7602.000			14.595			-2.919
7700.000			14.589			-2.918
7800.000			14.586			-2.917
7901.000			14.584			-2.917
8000.000			14.582			-2.916
8100.000			14.579			-2.916
8200.000			14.577			-2.915
8301.000			14.574			-2.915
8402.000			14.569			-2.914
8500.000			14.567			-2.913
8600.000			14.564			-2.913
8701.000			14.563			-2.913
8800.000			14.560			-2.912
8900.000			14.557			-2.911
9001.000			14.555			-2.911
9101.000			14.549			-2.910
9201.000			14.547			-2.909
9301.000			14.545			-2.909
9400.000			14.544			-2.909
9500.000			14.542			-2.908
9601.000			14.540			-2.908
9700.000			14.537			-2.907
9800.000			14.534			-2.907
9902.000			14.531			-2.906
10000.000			14.528			-2.906
10100.000			14.525			-2.905
10201.000			14.524			-2.905
10300.000			14.524			-2.905
10400.000			14.520			-2.904
10501.000			14.519			-2.904
10601.000			14.515			-2.903
10701.000			14.513			-2.903
10801.000			14.510			-2.902
10900.000			14.508			-2.902
11000.000			14.507			-2.901
11101.000			14.506			-2.901
11200.000			14.503			-2.901
11300.000			14.499			-2.900
11402.000			14.497			-2.899
11501.000			14.495			-2.899
11601.000			14.494			-2.899
11700.000			14.492			-2.898
11800.000			14.491			-2.898
11901.000			14.489			-2.898
12000.000			14.487			-2.897
12100.000			14.484			-2.897
12202.000			14.483			-2.897
12301.000			14.481			-2.896
12400.000			14.479			-2.896
12501.000			14.477			-2.895
12600.000			14.475			-2.895
12700.000			14.474			-2.895
12801.000			14.470			-2.894
12900.000			14.469			-2.894
13001.000			14.467			-2.893
13102.000			14.466			-2.893
13200.000			14.465			-2.893
13300.000			14.463			-2.893
13401.000			14.462			-2.892
13500.000			14.459			-2.892
13600.000			14.457			-2.891
13701.000			14.455			-2.891
13801.000			14.453			-2.891
13901.000			14.453			-2.891
14001.000			14.452			-2.890
14100.000			14.449			-2.890
14200.000			14.447			-2.889
14301.000			14.446			-2.889
14400.000			14.445			-2.889
14500.000			14.443			-2.889
14602.000			14.441			-2.888
14701.000			14.440			-2.888
14801.000			14.438			-2.888
14900.000			14.437			-2.887
15000.000			14.434			-2.887
15101.000			14.432			-2.886
15200.000			14.430			-2.886
15300.000			14.430			-2.886
15402.000			14.429			-2.886
15501.000			14.427			-2.885
15600.000			14.425			-2.885
15701.000			14.425			-2.885
15800.000			14.424			-2.885
15900.000			14.422			-2.884
16001.000			14.421			-2.884
16101.000			14.419			-2.884
16201.000			14.417			-2.883
16302.000			14.416			-2.883
16400.000			14.414			-2.883
16500.000			14.412			-2.882
16601.000			14.412			-2.882
16700.000			14.410			-2.882
16800.000			14.407			-2.881
16901.000			14.406			-2.881
17001.000			14.405			-2.881
17100.000			14.405			-2.881
17201.000			14.402			-2.880
17300.000			14.400			-2.880
17400.000			14.399			-2.880
17501.000			14.398			-2.880
17600.000			14.397			-2.879
17702.000			14.397			-2.879
17801.000			14.394			-2.879
17901.000			14.392			-2.878
18001.000			14.391			-2.878
18100.000			14.391			-2.878
18200.000			14.390			-2.878
18301.000			14.389			-2.878
18400.000			14.386			-2.877
18500.000			14.385			-2.877
18602.000			14.383			-2.877
18701.000			14.382			-2.876
18800.000			14.381			-2.876
18901.000			14.379			-2.876
19000.000			14.380			-2.876
19100.000			14.378			-2.876
19201.000			14.376			-2.875
19300.000			14.375			-2.875
19401.000			14.375			-2.875
19502.000			14.374			-2.875
19600.000			14.372			-2.874
19700.000			14.370			-2.874
19801.000			14.369			-2.874
19900.000			14.369			-2.874
20000.000			14.368			-2.874
20101.000			14.367			-2.873
20201.000			14.365			-2.873
20301.000			14.364			-2.873
20401.000			14.363			-2.873
20500.000			14.362			-2.872
20600.000			14.361			-2.872
20701.000			14.359			-2.872
20800.000			14.358			-2.872
20900.000			14.357			-2.871
21002.000			14.356			-2.871
21101.000			14.355			-2.871
21201.000			14.354			-2.871
21300.000			14.354			-2.871
21400.000			14.352			-2.870
21501.000			14.350			-2.870
21600.000			14.350			-2.870
21701.000			14.348			-2.870
21802.000			14.347			-2.869
21901.000			14.346			-2.869
22000.000			14.345			-2.869
22101.000			14.345			-2.869
22200.000			14.344			-2.869
22300.000			14.343			-2.869
22401.000			14.342			-2.868
22501.000			14.339			-2.868
22601.000			14.339			-2.868
22701.000			14.339			-2.868
22800.000			14.337			-2.867
22900.000			14.336			-2.867
23001.000			14.335			-2.867
23100.000			14.334			-2.867
23200.000			14.333			-2.867
23302.000			14.332			-2.866
23401.000			14.331			-2.866
23500.000			14.330			-2.866
23601.000			14.330			-2.866
23700.000			14.328			-2.866
23800.000			14.327			-2.865
23901.000			14.325			-2.865
24000.000			14.326			-2.865
24102.000			14.325			-2.865
24201.000			14.324			-2.865
24300.000			14.322			-2.864
24401.000			14.321			-2.864
24500.000			14.320			-2.864
24600.000			14.319			-2.864
24701.000			14.319			-2.864
24800.000			14.318			-2.864
24901.000			14.316			-2.863
25002.000			14.316			-2.863
25100.000			14.315			-2.863
25200.000			14.314			-2.863
25301.000			14.312			-2.862
25400.000			14.311			-2.862
25500.000			14.312			-2.862
25601.000			14.311			-2.862
25701.000			14.310			-2.862
25801.000			14.309			-2.862
25901.000			14.308			-2.862
26000.000			14.307			-2.861
26100.000			14.307			-2.861
26201.000			14.307			-2.861
26300.000			14.305			-2.861
26400.000			14.304			-2.861
26502.000			14.303			-2.861
26601.000			14.302			-2.860
26700.000			14.301			-2.860
26801.000			14.300			-2.860
26900.000			14.301			-2.860
27000.000			14.300			-2.860
27101.000			14.299			-2.860
27201.000			14.298			-2.860
27302.000			14.297			-2.859
27401.000			14.296			-2.859
27500.000			14.295			-2.859
27601.000			14.294			-2.859
27700.000			14.293			-2.859
27800.000			14.293			-2.859
27901.000			14.292			-2.858
28001.000			14.292			-2.858
28101.000			14.290			-2.858
28201.000			14.289			-2.858
28300.000			14.288			-2.858
28400.000			14.288			-2.858
28501.000			14.287			-2.857
28600.000			14.286			-2.857
28700.000			14.286			-2.857
28801.000			14.285			-2.857
28901.000			14.284			-2.857
29001.000			14.283			-2.857
29101.000			14.281			-2.856
29200.000			14.281			-2.856
29300.000			14.281			-2.856
29401.000			14.281			-2.856
29500.000			14.280			-2.856
29600.000			14.279			-2.856
29702.000			14.278			-2.856
29801.000			14.278			-2.856
29900.000			14.277			-2.855
30001.000			14.277			-2.855
30100.000			14.276			-2.855
30200.000			14.275			-2.855
30301.000			14.274			-2.855
30400.000			14.274			-2.855
30502.000			14.271			-2.854
30601.000			14.271			-2.854
30700.000			14.271			-2.854
30801.000			14.270			-2.854
30900.000			14.270			-2.854
31000.000			14.269			-2.854
31101.000			14.268			-2.854
31200.000			14.267			-2.853
31301.000			14.267			-2.853
31402.000			14.265			-2.853
31500.000			14.265			-2.853
31600.000			14.264			-2.853
31701.000			14.263			-2.853
31800.000			14.262			-2.852
31900.000			14.262			-2.852
32001.000			14.261			-2.852
32101.000			14.260			-2.852
32201.000			14.260			-2.852
32301.000			14.259			-2.852
32400.000			14.259			-2.852
32500.000			14.257			-2.851
32601.000			14.256			-2.851
32700.000			14.254			-2.851
32800.000			14.254			-2.851
32902.000			14.253			-2.851
33001.000			14.253			-2.851
33100.000			14.253			-2.851
33201.000			14.250			-2.850
33300.000			14.250			-2.850
33400.000			14.250			-2.850
33501.000			14.248			-2.850
33601.000			14.247			-2.849
33702.000			14.247			-2.849
33800.000			14.247			-2.849
33900.000			14.245			-2.849
34001.000			14.245			-2.849
34100.000			14.244			-2.849
34200.000			14.245			-2.849
34301.000			14.244			-2.849
34401.000			14.243			-2.849
34501.000			14.243			-2.849
34601.000			14.242			-2.848
34700.000			14.241			-2.848
34800.000			14.241			-2.848
34901.000			14.241			-2.848
35000.000			14.240			-2.848
35100.000			14.238			-2.848
35202.000			14.238			-2.848
35301.000			14.238			-2.848
35400.000			14.236			-2.847
35501.000			14.236			-2.847
35600.000			14.235			-2.847
35700.000			14.234			-2.847
35801.000			14.234			-2.847
35900.000			14.234			-2.847
36001.000			14.233			-2.847
36102.000			14.230			-2.846
36200.000			14.230			-2.846
36300.000			14.230			-2.846
36401.000			14.230			-2.846
36500.000			14.230			-2.846
36600.000			14.229			-2.846
36702.000			14.227			-2.845
36801.000			14.227			-2.845
36902.000			14.226			-2.845
37000.000			14.225			-2.845
37100.000			14.225			-2.845
37201.000			14.226			-2.845
37300.000			14.225			-2.845
37400.000			14.224			-2.845
37502.000			14.224			-2.845
37601.000			14.223			-2.845
37700.000			14.222			-2.844
37801.000			14.221			-2.844
37900.000			14.221			-2.844
38000.000			14.221			-2.844
38101.000			14.220			-2.844
38200.000			14.219			-2.844
38301.000			14.219			-2.844
38402.000			14.219			-2.844
38500.000			14.217			-2.843
38600.000			14.216			-2.843
38701.000			14.216			-2.843
38800.000			14.215			-2.843
38900.000			14.216			-2.843
39001.000			14.215			-2.843
39101.000			14.213			-2.843
39201.000			14.212			-2.842
39301.000			14.212			-2.842
39400.000			14.212			-2.842
39500.000			14.212			-2.842
39601.000			14.211			-2.842
39700.000			14.211			-2.842
39800.000			14.210			-2.842
39902.000			14.209			-2.842
40001.000			14.209			-2.842
40100.000			14.209			-2.842
40200.000			14.209			-2.842
40300.000			14.208			-2.842
40401.000			14.207			-2.841
40500.000			14.207			-2.841
40600.000			14.205			-2.841
40702.000			14.205			-2.841
40801.000			14.204			-2.841
40900.000			14.203			-2.841
41001.000			14.203			-2.841
41100.000			14.203			-2.841
41200.000			14.201			-2.840
41301.000			14.201			-2.840
41401.000			14.201			-2.840
41501.000			14.201			-2.840
41601.000			14.201			-2.840
41700.000			14.201			-2.840
41800.000			14.200			-2.840
41901.000			14.198			-2.840
42000.000			14.197			-2.839
42100.000			14.197			-2.839
42202.000			14.197			-2.839
42301.000			14.197			-2.839
42400.000			14.197			-2.839
42501.000			14.196			-2.839
42600.000			14.194			-2.839
42700.000			14.193			-2.839
42801.000			14.193			-2.839
42901.000			14.193			-2.839
43001.000			14.193			-2.839
43102.000			14.192			-2.838
43200.000			14.192			-2.838
43300.000			14.193			-2.839
43400.000			14.191			-2.838
43500.000			14.190			-2.838
43601.000			14.189			-2.838
43700.000			14.189			-2.838
43801.000			14.189			-2.838
43902.000			14.189			-2.838
44000.000			14.188			-2.838
44100.000			14.187			-2.837
44201.000			14.186			-2.837
44300.000			14.186			-2.837
44400.000			14.186			-2.837
44501.000			14.185			-2.837
44601.000			14.185			-2.837
44701.000			14.184			-2.837
44801.000			14.185			-2.837
44900.000			14.183			-2.837
45000.000			14.182			-2.836
45101.000			14.181			-2.836
45200.000			14.181			-2.836
45300.000			14.180			-2.836
45402.000			14.181			-2.836
45501.000			14.181			-2.836
45600.000			14.180			-2.836
45701.000			14.179			-2.836
45800.000			14.179			-2.836
45900.000			14.178			-2.836
46001.000			14.178			-2.836
46100.000			14.177			-2.835
46201.000			14.176			-2.835
46302.000			14.175			-2.835
46400.000			14.175			-2.835
46500.000			14.175			-2.835
46600.000			14.175			-2.835
46700.000			14.175			-2.835
46801.000			14.174			-2.835
46900.000			14.173			-2.835
47001.000			14.174			-2.835
47102.000			14.173			-2.835
47200.000			14.172			-2.834
47300.000			14.170			-2.834
47401.000			14.170			-2.834
47500.000			14.170			-2.834
47600.000			14.170			-2.834
47701.000			14.170			-2.834
47801.000			14.168			-2.834
47901.000			14.168			-2.834
48001.000			14.167			-2.833
48100.000			14.167			-2.833
48200.000			14.167			-2.833
48301.000			14.167			-2.833
48400.000			14.166			-2.833
48500.000			14.165			-2.833
48602.000			14.164			-2.833
48701.000			14.164			-2.833
48800.000			14.163			-2.833
48901.000			14.164			-2.833
49000.000			14.163			-2.833
49100.000			14.162			-2.832
49201.000			14.162			-2.832
49300.000			14.161			-2.832
49401.000			14.161			-2.832
49502.000			14.160			-2.832
49600.000			14.161			-2.832
49700.000			14.160			-2.832
49800.000			14.159			-2.832
49900.000			14.160			-2.832
50001.000			14.159			-2.832
50100.000			14.160			-2.832
50201.000			14.158			-2.832
50302.000			14.157			-2.831
50400.000			14.157			-2.831
50500.000			14.157			-2.831
50601.000			14.157			-2.831
50700.000			14.156			-2.831
50800.000			14.155			-2.831
50902.000			14.155			-2.831
51001.000			14.154			-2.831
51100.000			14.153			-2.831
51201.000			14.154			-2.831
51300.000			14.153			-2.831
51400.000			14.153			-2.831
51501.000			14.151			-2.830
51600.000			14.151			-2.830
51701.000			14.151			-2.830
51802.000			14.150			-2.830
51900.000			14.150			-2.830
52000.000			14.150			-2.830
52101.000			14.148			-2.830
52200.000			14.149			-2.830
52300.000			14.148			-2.830
52401.000			14.146			-2.829
52501.000			14.145			-2.829
52601.000			14.146			-2.829
52701.000			14.146			-2.829
52800.000			14.145			-2.829
52900.000			14.144			-2.829
53000.000			14.144			-2.829
53100.000			14.143			-2.829
53201.000			14.143			-2.829
53301.000			14.144			-2.829
53401.000			14.142			-2.828
53501.000			14.141			-2.828
53600.000			14.141			-2.828
53700.000			14.141			-2.828
53801.000			14.140			-2.828
53900.000			14.139			-2.828
54001.000			14.139			-2.828
54102.000			14.139			-2.828
54201.000			14.139			-2.828
54300.000			14.138			-2.828
54401.000			14.138			-2.828
54500.000			14.137			-2.827
54600.000			14.137			-2.827
54701.000			14.136			-2.827
54801.000			14.135			-2.827
54901.000			14.135			-2.827
55001.000			14.134			-2.827
55100.000			14.134			-2.827
55200.000			14.134			-2.827
55301.000			14.134			-2.827
55400.000			14.133			-2.827
55500.000			14.132			-2.826
55602.000			14.131			-2.826
55701.000			14.131			-2.826
55800.000			14.131			-2.826
55901.000			14.130			-2.826
56000.000			14.130			-2.826
56100.000			14.130			-2.826
56200.000			14.130			-2.826
56300.000			14.129			-2.826
56402.000			14.129			-2.826
56501.000			14.129			-2.826
56600.000			14.128			-2.826
56701.000			14.128			-2.826
56800.000			14.128			-2.826
56900.000			14.128			-2.826
57001.000			14.127			-2.825
57100.000			14.126			-2.825
57201.000			14.126			-2.825
57302.000			14.125			-2.825
57400.000			14.125			-2.825
57500.000			14.125			-2.825
57601.000			14.124			-2.825
57700.000			14.124			-2.825
57800.000			14.123			-2.825
57901.000			14.124			-2.825
58001.000			14.123			-2.825
58101.000			14.123			-2.825
58201.000			14.122			-2.824
58300.000			14.121			-2.824
58400.000			14.121			-2.824
58501.000			14.122			-2.824
58600.000			14.121			-2.824
58700.000			14.120			-2.824
58802.000			14.121			-2.824
58901.000			14.119			-2.824
59000.000			14.120			-2.824
59101.000			14.120			-2.824
59200.000			14.118			-2.824
59300.000			14.117			-2.823
59400.000			14.117			-2.823
59500.000			14.118			-2.824
59602.000			14.117			-2.823
59701.000			14.116			-2.823
59800.000			14.116			-2.823
59901.000			14.115			-2.823
60000.000			14.114			-2.823
60100.000			14.114			-2.823
60201.000			14.115			-2.823
60301.000			14.115			-2.823
60401.000			14.114			-2.823
60501.000			14.115			-2.823
60600.000			14.114			-2.823
60700.000			14.113			-2.823
60801.000			14.112			-2.822
60900.000			14.112			-2.822
61000.000			14.112			-2.822
61102.000			14.112			-2.822
61201.000			14.111			-2.822
61300.000			14.112			-2.822
61401.000			14.112			-2.822
61500.000			14.111			-2.822
61600.000			14.111			-2.822
61701.000			14.110			-2.822
61801.000			14.109			-2.822
61901.000			14.109			-2.822
62001.000			14.109			-2.822
62100.000			14.109			-2.822
62200.000			14.108			-2.822
62301.000			14.107			-2.821
62400.000			14.108			-2.822
62500.000			14.107			-2.821
62602.000			14.107			-2.821
62701.000			14.106			-2.821
62801.000			14.106			-2.821
62900.000			14.106			-2.821
63000.000			14.105			-2.821
63101.000			14.105			-2.821
63200.000			14.104			-2.821
63300.000			14.103			-2.821
63402.000			14.104			-2.821
63501.000			14.105			-2.821
63600.000			14.104			-2.821
63701.000			14.102			-2.820
63800.000			14.102			-2.820
63900.000			14.102			-2.820
64001.000			14.101			-2.820
64100.000			14.101			-2.820
64201.000			14.101			-2.820
64302.000			14.100			-2.820
64400.000			14.100			-2.820
64500.000			14.099			-2.820
64601.000			14.099			-2.820
64700.000			14.097			-2.819
64800.000			14.097			-2.819
64901.000			14.097			-2.819
65001.000			14.096			-2.819
65101.000			14.096			-2.819
65201.000			14.096			-2.819
65300.000			14.095			-2.819
65400.000			14.094			-2.819
65501.000			14.094			-2.819
65600.000			14.095			-2.819
65700.000			14.094			-2.819
65802.000			14.093			-2.819
65901.000			14.093			-2.819
66001.000			14.093			-2.819
66100.000			14.093			-2.819
66200.000			14.092			-2.818
66301.000			14.092			-2.818
66400.000			14.092			-2.818
66500.000			14.092			-2.818
66602.000			14.090			-2.818
66701.000			14.090			-2.818
66800.000			14.091			-2.818
66901.000			14.090			-2.818
67000.000			14.090			-2.818
67100.000			14.089			-2.818
67201.000			14.090			-2.818
67300.000			14.090			-2.818
67401.000			14.089			-2.818
67502.000			14.086			-2.817
67600.000			14.087			-2.817
67700.000			14.087			-2.817
67801.000			14.087			-2.817
67900.000			14.087			-2.817
68000.000			14.087			-2.817
68101.000			14.086			-2.817
68200.000			14.086			-2.817
68301.000			14.085			-2.817
68402.000			14.085			-2.817
68500.000			14.084			-2.817
68600.000			14.084			-2.817
68701.000			14.084			-2.817
68800.000			14.084			-2.817
68900.000			14.085			-2.817
69000.000			14.084			-2.817
69101.000			14.083			-2.817
69202.000			14.083			-2.817
69300.000			14.082			-2.816
69400.000			14.082			-2.816
69501.000			14.081			-2.816
69600.000			14.081			-2.816
69700.000			14.081			-2.816
69801.000			14.082			-2.816
69901.000			14.082			-2.816
70001.000			14.080			-2.816
70101.000			14.080			-2.816
70200.000			14.079			-2.816
70300.000			14.079			-2.816
70401.000			14.079			-2.816
70500.000			14.078			-2.816
70600.000			14.079			-2.816
70702.000			14.079			-2.816
70801.000			14.078			-2.816
70900.000			14.078			-2.816
71001.000			14.078			-2.816
71100.000			14.077			-2.815
71200.000			14.077			-2.815
