# Acquired on 08/01/2024 17:57:12 
# SPIDER: Creep_6mm_07714532C-2
# CREEP MEASUREMENT

# time [ms]		force [N]		stiffness [N/mm]
0.000			-13.189			-2.198
100.000			-14.001			-2.334
200.000			-14.324			-2.387
300.000			-14.358			-2.393
400.000			-14.257			-2.376
502.000			-14.219			-2.370
601.000			-14.187			-2.365
700.000			-14.158			-2.360
801.000			-14.133			-2.356
900.000			-14.112			-2.352
1000.000			-14.091			-2.349
1101.000			-14.054			-2.342
1201.000			-14.038			-2.340
1301.000			-14.024			-2.337
1401.000			-14.011			-2.335
1500.000			-13.996			-2.333
1600.000			-13.982			-2.330
1701.000			-13.970			-2.328
1800.000			-13.948			-2.325
1900.000			-13.938			-2.323
2002.000			-13.928			-2.321
2101.000			-13.918			-2.320
2200.000			-13.908			-2.318
2301.000			-13.898			-2.316
2400.000			-13.890			-2.315
2500.000			-13.881			-2.314
2601.000			-13.867			-2.311
2701.000			-13.859			-2.310
2801.000			-13.851			-2.309
2901.000			-13.844			-2.307
3000.000			-13.837			-2.306
3100.000			-13.831			-2.305
3201.000			-13.824			-2.304
3300.000			-13.811			-2.302
3400.000			-13.805			-2.301
3502.000			-13.799			-2.300
3601.000			-13.793			-2.299
3701.000			-13.787			-2.298
3800.000			-13.781			-2.297
3900.000			-13.775			-2.296
4001.000			-13.764			-2.294
4100.000			-13.759			-2.293
4200.000			-13.754			-2.292
4302.000			-13.750			-2.292
4401.000			-13.746			-2.291
4500.000			-13.739			-2.290
4601.000			-13.734			-2.289
4700.000			-13.726			-2.288
4800.000			-13.722			-2.287
4901.000			-13.718			-2.286
5000.000			-13.713			-2.285
5101.000			-13.708			-2.285
5201.000			-13.704			-2.284
5300.000			-13.700			-2.283
5400.000			-13.696			-2.283
5501.000			-13.689			-2.282
5600.000			-13.684			-2.281
5700.000			-13.681			-2.280
5802.000			-13.677			-2.280
5901.000			-13.674			-2.279
6000.000			-13.670			-2.278
6101.000			-13.667			-2.278
6200.000			-13.658			-2.276
6300.000			-13.655			-2.276
6401.000			-13.651			-2.275
6500.000			-13.648			-2.275
6602.000			-13.645			-2.274
6701.000			-13.643			-2.274
6800.000			-13.639			-2.273
6901.000			-13.632			-2.272
7000.000			-13.629			-2.271
7100.000			-13.625			-2.271
7201.000			-13.622			-2.270
7300.000			-13.620			-2.270
7401.000			-13.617			-2.270
7502.000			-13.614			-2.269
7600.000			-13.609			-2.268
7700.000			-13.605			-2.268
7801.000			-13.603			-2.267
7900.000			-13.601			-2.267
8000.000			-13.597			-2.266
8102.000			-13.594			-2.266
8201.000			-13.590			-2.265
8300.000			-13.586			-2.264
8401.000			-13.584			-2.264
8500.000			-13.581			-2.264
8600.000			-13.579			-2.263
8701.000			-13.576			-2.263
8800.000			-13.574			-2.262
8901.000			-13.572			-2.262
9002.000			-13.568			-2.261
9100.000			-13.563			-2.260
9200.000			-13.560			-2.260
9301.000			-13.559			-2.260
9400.000			-13.557			-2.259
9500.000			-13.554			-2.259
9601.000			-13.553			-2.259
9701.000			-13.550			-2.258
9802.000			-13.545			-2.258
9900.000			-13.542			-2.257
10000.000			-13.540			-2.257
10101.000			-13.537			-2.256
10200.000			-13.536			-2.256
10300.000			-13.534			-2.256
10401.000			-13.532			-2.255
10501.000			-13.527			-2.255
10601.000			-13.525			-2.254
10701.000			-13.522			-2.254
10800.000			-13.520			-2.253
10900.000			-13.519			-2.253
11001.000			-13.517			-2.253
11100.000			-13.515			-2.253
11201.000			-13.511			-2.252
11302.000			-13.509			-2.251
11400.000			-13.507			-2.251
11500.000			-13.505			-2.251
11601.000			-13.502			-2.250
11700.000			-13.501			-2.250
11800.000			-13.499			-2.250
11901.000			-13.497			-2.250
12001.000			-13.493			-2.249
12101.000			-13.491			-2.248
12201.000			-13.489			-2.248
12300.000			-13.488			-2.248
12400.000			-13.486			-2.248
12501.000			-13.484			-2.247
12600.000			-13.482			-2.247
12700.000			-13.478			-2.246
12802.000			-13.477			-2.246
12901.000			-13.476			-2.246
13000.000			-13.474			-2.246
13100.000			-13.472			-2.245
13200.000			-13.471			-2.245
13301.000			-13.469			-2.245
13400.000			-13.465			-2.244
13500.000			-13.464			-2.244
13602.000			-13.461			-2.244
13701.000			-13.459			-2.243
13800.000			-13.459			-2.243
13901.000			-13.458			-2.243
14000.000			-13.455			-2.243
14100.000			-13.452			-2.242
14201.000			-13.451			-2.242
14300.000			-13.450			-2.242
14401.000			-13.447			-2.241
14502.000			-13.446			-2.241
14600.000			-13.445			-2.241
14700.000			-13.444			-2.241
14801.000			-13.442			-2.240
14900.000			-13.439			-2.240
15000.000			-13.438			-2.240
15101.000			-13.435			-2.239
15201.000			-13.434			-2.239
15301.000			-13.434			-2.239
15401.000			-13.433			-2.239
15500.000			-13.431			-2.238
15600.000			-13.427			-2.238
15701.000			-13.425			-2.238
15800.000			-13.424			-2.237
15900.000			-13.422			-2.237
16002.000			-13.420			-2.237
16101.000			-13.418			-2.236
16200.000			-13.418			-2.236
16300.000			-13.415			-2.236
16400.000			-13.414			-2.236
16501.000			-13.412			-2.235
16600.000			-13.410			-2.235
16700.000			-13.409			-2.235
16802.000			-13.408			-2.235
16901.000			-13.408			-2.235
17000.000			-13.404			-2.234
17101.000			-13.403			-2.234
17200.000			-13.401			-2.234
17300.000			-13.399			-2.233
17401.000			-13.398			-2.233
17501.000			-13.397			-2.233
17601.000			-13.396			-2.233
17702.000			-13.396			-2.233
17800.000			-13.392			-2.232
17900.000			-13.392			-2.232
18001.000			-13.391			-2.232
18100.000			-13.389			-2.232
18200.000			-13.388			-2.231
18301.000			-13.386			-2.231
18401.000			-13.385			-2.231
18501.000			-13.382			-2.230
18601.000			-13.381			-2.230
18700.000			-13.380			-2.230
18800.000			-13.379			-2.230
18901.000			-13.378			-2.230
19000.000			-13.377			-2.229
19100.000			-13.375			-2.229
19202.000			-13.373			-2.229
19301.000			-13.372			-2.229
19400.000			-13.371			-2.228
19500.000			-13.369			-2.228
19600.000			-13.369			-2.228
19701.000			-13.368			-2.228
19800.000			-13.366			-2.228
19900.000			-13.364			-2.227
20002.000			-13.363			-2.227
20101.000			-13.361			-2.227
20200.000			-13.358			-2.226
20301.000			-13.358			-2.226
20400.000			-13.358			-2.226
20500.000			-13.356			-2.226
20601.000			-13.354			-2.226
20700.000			-13.353			-2.226
20801.000			-13.352			-2.225
20902.000			-13.351			-2.225
21000.000			-13.350			-2.225
21100.000			-13.349			-2.225
21201.000			-13.348			-2.225
21300.000			-13.346			-2.224
21400.000			-13.344			-2.224
21501.000			-13.342			-2.224
21601.000			-13.341			-2.223
21701.000			-13.341			-2.223
21801.000			-13.340			-2.223
21900.000			-13.339			-2.223
22000.000			-13.338			-2.223
22101.000			-13.336			-2.223
22200.000			-13.335			-2.222
22301.000			-13.333			-2.222
22402.000			-13.332			-2.222
22500.000			-13.331			-2.222
22600.000			-13.331			-2.222
22700.000			-13.329			-2.222
22800.000			-13.328			-2.221
22901.000			-13.327			-2.221
23000.000			-13.325			-2.221
23101.000			-13.324			-2.221
23202.000			-13.323			-2.220
23300.000			-13.322			-2.220
23400.000			-13.322			-2.220
23501.000			-13.320			-2.220
23600.000			-13.320			-2.220
23700.000			-13.318			-2.220
23801.000			-13.317			-2.220
23901.000			-13.316			-2.219
24001.000			-13.315			-2.219
24101.000			-13.314			-2.219
24200.000			-13.312			-2.219
24300.000			-13.311			-2.219
24401.000			-13.310			-2.218
24500.000			-13.309			-2.218
24600.000			-13.309			-2.218
24702.000			-13.308			-2.218
24801.000			-13.306			-2.218
24900.000			-13.305			-2.218
25001.000			-13.303			-2.217
25100.000			-13.302			-2.217
25200.000			-13.301			-2.217
25301.000			-13.300			-2.217
25401.000			-13.300			-2.217
25501.000			-13.298			-2.216
25601.000			-13.298			-2.216
25700.000			-13.296			-2.216
25800.000			-13.295			-2.216
25900.000			-13.294			-2.216
26000.000			-13.293			-2.216
26101.000			-13.292			-2.215
26201.000			-13.292			-2.215
26301.000			-13.291			-2.215
26401.000			-13.289			-2.215
26500.000			-13.288			-2.215
26600.000			-13.287			-2.215
26701.000			-13.286			-2.214
26800.000			-13.286			-2.214
26900.000			-13.285			-2.214
27002.000			-13.284			-2.214
27101.000			-13.284			-2.214
27200.000			-13.280			-2.213
27301.000			-13.280			-2.213
27400.000			-13.280			-2.213
27500.000			-13.279			-2.213
27601.000			-13.278			-2.213
27700.000			-13.277			-2.213
27801.000			-13.275			-2.213
27902.000			-13.273			-2.212
28001.000			-13.273			-2.212
28100.000			-13.273			-2.212
28201.000			-13.272			-2.212
28300.000			-13.271			-2.212
28400.000			-13.271			-2.212
28501.000			-13.269			-2.212
28601.000			-13.267			-2.211
28701.000			-13.267			-2.211
28802.000			-13.267			-2.211
28900.000			-13.265			-2.211
29000.000			-13.264			-2.211
29100.000			-13.263			-2.210
29200.000			-13.262			-2.210
29301.000			-13.261			-2.210
29400.000			-13.261			-2.210
29501.000			-13.260			-2.210
29602.000			-13.259			-2.210
29700.000			-13.259			-2.210
29800.000			-13.257			-2.210
29901.000			-13.256			-2.209
30000.000			-13.256			-2.209
30100.000			-13.254			-2.209
30201.000			-13.254			-2.209
30301.000			-13.254			-2.209
30401.000			-13.253			-2.209
30501.000			-13.252			-2.209
30600.000			-13.251			-2.209
30700.000			-13.249			-2.208
30801.000			-13.248			-2.208
30900.000			-13.247			-2.208
31001.000			-13.246			-2.208
31102.000			-13.246			-2.208
31200.000			-13.246			-2.208
31300.000			-13.244			-2.207
31401.000			-13.243			-2.207
31500.000			-13.244			-2.207
31600.000			-13.242			-2.207
31701.000			-13.240			-2.207
31801.000			-13.240			-2.207
31901.000			-13.239			-2.206
32001.000			-13.238			-2.206
32100.000			-13.238			-2.206
32200.000			-13.235			-2.206
32300.000			-13.235			-2.206
32400.000			-13.234			-2.206
32501.000			-13.233			-2.206
32601.000			-13.233			-2.205
32701.000			-13.231			-2.205
32801.000			-13.231			-2.205
32900.000			-13.230			-2.205
33000.000			-13.229			-2.205
33101.000			-13.229			-2.205
33200.000			-13.227			-2.205
33300.000			-13.227			-2.205
33402.000			-13.227			-2.204
33501.000			-13.226			-2.204
33600.000			-13.226			-2.204
33701.000			-13.225			-2.204
33800.000			-13.223			-2.204
33900.000			-13.223			-2.204
34001.000			-13.222			-2.204
34101.000			-13.221			-2.203
34201.000			-13.220			-2.203
34301.000			-13.219			-2.203
34400.000			-13.218			-2.203
34500.000			-13.217			-2.203
34601.000			-13.218			-2.203
34700.000			-13.217			-2.203
34800.000			-13.216			-2.203
34902.000			-13.215			-2.203
35001.000			-13.215			-2.203
35100.000			-13.213			-2.202
35201.000			-13.211			-2.202
35300.000			-13.211			-2.202
35400.000			-13.210			-2.202
35500.000			-13.209			-2.202
35600.000			-13.208			-2.201
35702.000			-13.209			-2.201
35801.000			-13.208			-2.201
35900.000			-13.207			-2.201
36001.000			-13.207			-2.201
36100.000			-13.206			-2.201
36200.000			-13.204			-2.201
36301.000			-13.204			-2.201
36400.000			-13.204			-2.201
36501.000			-13.203			-2.200
36602.000			-13.201			-2.200
36700.000			-13.201			-2.200
36800.000			-13.200			-2.200
36901.000			-13.200			-2.200
37000.000			-13.199			-2.200
37100.000			-13.199			-2.200
37201.000			-13.199			-2.200
37301.000			-13.198			-2.200
37401.000			-13.196			-2.199
37501.000			-13.195			-2.199
37600.000			-13.194			-2.199
37700.000			-13.194			-2.199
37801.000			-13.195			-2.199
37900.000			-13.194			-2.199
38000.000			-13.192			-2.199
38102.000			-13.192			-2.199
38201.000			-13.192			-2.199
38300.000			-13.191			-2.198
38401.000			-13.190			-2.198
38500.000			-13.189			-2.198
38600.000			-13.189			-2.198
38700.000			-13.187			-2.198
38800.000			-13.186			-2.198
38902.000			-13.185			-2.197
39001.000			-13.184			-2.197
39100.000			-13.183			-2.197
39201.000			-13.183			-2.197
39300.000			-13.184			-2.197
39400.000			-13.182			-2.197
39501.000			-13.181			-2.197
39600.000			-13.180			-2.197
39701.000			-13.180			-2.197
39802.000			-13.179			-2.196
39900.000			-13.179			-2.196
40000.000			-13.178			-2.196
40101.000			-13.177			-2.196
40200.000			-13.177			-2.196
40300.000			-13.176			-2.196
40401.000			-13.175			-2.196
40501.000			-13.174			-2.196
40601.000			-13.174			-2.196
40701.000			-13.174			-2.196
40800.000			-13.173			-2.196
40900.000			-13.171			-2.195
41001.000			-13.171			-2.195
41100.000			-13.171			-2.195
41201.000			-13.169			-2.195
41302.000			-13.168			-2.195
41401.000			-13.169			-2.195
41500.000			-13.169			-2.195
41601.000			-13.167			-2.195
41700.000			-13.167			-2.195
41800.000			-13.166			-2.194
41900.000			-13.165			-2.194
42001.000			-13.165			-2.194
42102.000			-13.164			-2.194
42200.000			-13.164			-2.194
42300.000			-13.164			-2.194
42401.000			-13.163			-2.194
42500.000			-13.162			-2.194
42600.000			-13.161			-2.193
42701.000			-13.160			-2.193
42801.000			-13.160			-2.193
42901.000			-13.159			-2.193
43001.000			-13.158			-2.193
43100.000			-13.157			-2.193
43200.000			-13.156			-2.193
43301.000			-13.156			-2.193
43400.000			-13.156			-2.193
43500.000			-13.156			-2.193
43602.000			-13.155			-2.193
43701.000			-13.154			-2.192
43800.000			-13.154			-2.192
43901.000			-13.153			-2.192
44000.000			-13.152			-2.192
44100.000			-13.152			-2.192
44201.000			-13.151			-2.192
44301.000			-13.150			-2.192
44401.000			-13.151			-2.192
44501.000			-13.148			-2.191
44600.000			-13.148			-2.191
44700.000			-13.148			-2.191
44801.000			-13.147			-2.191
44900.000			-13.145			-2.191
45000.000			-13.146			-2.191
45102.000			-13.146			-2.191
45201.000			-13.145			-2.191
45302.000			-13.144			-2.191
45400.000			-13.143			-2.190
45500.000			-13.143			-2.190
45601.000			-13.142			-2.190
45700.000			-13.142			-2.190
45800.000			-13.142			-2.190
45902.000			-13.140			-2.190
46001.000			-13.139			-2.190
46100.000			-13.141			-2.190
46201.000			-13.139			-2.190
46300.000			-13.137			-2.190
46400.000			-13.137			-2.190
46501.000			-13.138			-2.190
46600.000			-13.137			-2.190
46701.000			-13.136			-2.189
46802.000			-13.135			-2.189
46900.000			-13.134			-2.189
47000.000			-13.133			-2.189
47101.000			-13.133			-2.189
47200.000			-13.134			-2.189
47300.000			-13.132			-2.189
47401.000			-13.131			-2.188
47501.000			-13.130			-2.188
47601.000			-13.130			-2.188
47701.000			-13.129			-2.188
47800.000			-13.128			-2.188
47900.000			-13.128			-2.188
48001.000			-13.129			-2.188
48100.000			-13.127			-2.188
48200.000			-13.126			-2.188
48302.000			-13.126			-2.188
48401.000			-13.127			-2.188
48501.000			-13.125			-2.188
48600.000			-13.125			-2.187
48700.000			-13.124			-2.187
48801.000			-13.124			-2.187
48900.000			-13.123			-2.187
49000.000			-13.121			-2.187
49102.000			-13.120			-2.187
49201.000			-13.120			-2.187
49300.000			-13.120			-2.187
49401.000			-13.121			-2.187
49500.000			-13.119			-2.187
49600.000			-13.119			-2.187
49701.000			-13.118			-2.186
49800.000			-13.117			-2.186
49901.000			-13.117			-2.186
50002.000			-13.118			-2.186
50100.000			-13.118			-2.186
50200.000			-13.117			-2.186
50301.000			-13.115			-2.186
50400.000			-13.114			-2.186
50500.000			-13.114			-2.186
50602.000			-13.113			-2.186
50701.000			-13.113			-2.185
50800.000			-13.113			-2.185
50901.000			-13.113			-2.185
51000.000			-13.111			-2.185
51100.000			-13.110			-2.185
51201.000			-13.110			-2.185
51300.000			-13.110			-2.185
51402.000			-13.110			-2.185
51501.000			-13.109			-2.185
51600.000			-13.108			-2.185
51701.000			-13.107			-2.185
51800.000			-13.106			-2.184
51900.000			-13.107			-2.184
52001.000			-13.106			-2.184
52100.000			-13.106			-2.184
52201.000			-13.105			-2.184
52302.000			-13.104			-2.184
52400.000			-13.104			-2.184
52500.000			-13.103			-2.184
52601.000			-13.103			-2.184
52700.000			-13.102			-2.184
52800.000			-13.101			-2.183
52901.000			-13.100			-2.183
53001.000			-13.101			-2.183
53101.000			-13.100			-2.183
53201.000			-13.099			-2.183
53300.000			-13.099			-2.183
53400.000			-13.098			-2.183
53501.000			-13.098			-2.183
53600.000			-13.097			-2.183
53701.000			-13.097			-2.183
53802.000			-13.098			-2.183
53900.000			-13.096			-2.183
54000.000			-13.094			-2.182
54101.000			-13.094			-2.182
54200.000			-13.095			-2.182
54300.000			-13.094			-2.182
54401.000			-13.094			-2.182
54501.000			-13.094			-2.182
54602.000			-13.092			-2.182
54701.000			-13.091			-2.182
54800.000			-13.091			-2.182
54901.000			-13.090			-2.182
55000.000			-13.090			-2.182
55100.000			-13.090			-2.182
55201.000			-13.089			-2.182
55301.000			-13.089			-2.182
55401.000			-13.089			-2.181
55502.000			-13.088			-2.181
55600.000			-13.088			-2.181
55700.000			-13.087			-2.181
55801.000			-13.087			-2.181
55900.000			-13.085			-2.181
56000.000			-13.085			-2.181
56101.000			-13.085			-2.181
56201.000			-13.084			-2.181
56301.000			-13.083			-2.181
56401.000			-13.084			-2.181
56500.000			-13.083			-2.181
56600.000			-13.081			-2.180
56701.000			-13.081			-2.180
56800.000			-13.081			-2.180
56901.000			-13.080			-2.180
57002.000			-13.080			-2.180
57100.000			-13.080			-2.180
57200.000			-13.079			-2.180
57301.000			-13.079			-2.180
57400.000			-13.078			-2.180
57500.000			-13.077			-2.179
57601.000			-13.076			-2.179
57701.000			-13.076			-2.179
57802.000			-13.077			-2.179
57901.000			-13.076			-2.179
58000.000			-13.075			-2.179
58101.000			-13.075			-2.179
58200.000			-13.074			-2.179
58300.000			-13.074			-2.179
58401.000			-13.073			-2.179
58501.000			-13.073			-2.179
58601.000			-13.072			-2.179
58702.000			-13.071			-2.178
58800.000			-13.071			-2.179
58900.000			-13.072			-2.179
59001.000			-13.071			-2.178
59100.000			-13.070			-2.178
59200.000			-13.070			-2.178
59301.000			-13.070			-2.178
59401.000			-13.069			-2.178
59501.000			-13.068			-2.178
59601.000			-13.068			-2.178
59700.000			-13.067			-2.178
59800.000			-13.067			-2.178
59901.000			-13.067			-2.178
60000.000			-13.066			-2.178
60100.000			-13.066			-2.178
60202.000			-13.066			-2.178
60301.000			-13.065			-2.177
60400.000			-13.064			-2.177
60501.000			-13.064			-2.177
60600.000			-13.064			-2.177
60700.000			-13.062			-2.177
60801.000			-13.062			-2.177
60901.000			-13.062			-2.177
61002.000			-13.062			-2.177
61100.000			-13.061			-2.177
61200.000			-13.061			-2.177
61301.000			-13.060			-2.177
61400.000			-13.059			-2.177
61500.000			-13.059			-2.176
61601.000			-13.059			-2.177
61701.000			-13.058			-2.176
61801.000			-13.058			-2.176
61901.000			-13.058			-2.176
62000.000			-13.057			-2.176
62100.000			-13.056			-2.176
62201.000			-13.056			-2.176
62300.000			-13.055			-2.176
62400.000			-13.056			-2.176
62502.000			-13.055			-2.176
62601.000			-13.053			-2.176
62700.000			-13.054			-2.176
62801.000			-13.054			-2.176
62900.000			-13.053			-2.176
63000.000			-13.054			-2.176
63101.000			-13.053			-2.176
63200.000			-13.053			-2.175
63301.000			-13.051			-2.175
63402.000			-13.050			-2.175
63500.000			-13.049			-2.175
63600.000			-13.048			-2.175
63701.000			-13.050			-2.175
63800.000			-13.050			-2.175
63900.000			-13.048			-2.175
64001.000			-13.049			-2.175
64101.000			-13.048			-2.175
64202.000			-13.047			-2.175
64300.000			-13.047			-2.174
64400.000			-13.047			-2.174
64501.000			-13.046			-2.174
64600.000			-13.046			-2.174
64700.000			-13.046			-2.174
64801.000			-13.044			-2.174
64901.000			-13.044			-2.174
65001.000			-13.044			-2.174
65101.000			-13.044			-2.174
65200.000			-13.043			-2.174
65300.000			-13.042			-2.174
65401.000			-13.043			-2.174
65500.000			-13.043			-2.174
65600.000			-13.042			-2.174
65702.000			-13.039			-2.173
65801.000			-13.040			-2.173
65900.000			-13.040			-2.173
66001.000			-13.040			-2.173
66100.000			-13.040			-2.173
66200.000			-13.039			-2.173
66301.000			-13.038			-2.173
66401.000			-13.038			-2.173
66501.000			-13.039			-2.173
66602.000			-13.038			-2.173
66700.000			-13.037			-2.173
66800.000			-13.036			-2.173
66901.000			-13.036			-2.173
67000.000			-13.035			-2.173
67100.000			-13.035			-2.173
67201.000			-13.035			-2.172
67301.000			-13.035			-2.172
67402.000			-13.034			-2.172
67500.000			-13.034			-2.172
67600.000			-13.033			-2.172
67701.000			-13.033			-2.172
67800.000			-13.033			-2.172
67900.000			-13.032			-2.172
68001.000			-13.031			-2.172
68101.000			-13.031			-2.172
68201.000			-13.030			-2.172
68301.000			-13.031			-2.172
68400.000			-13.029			-2.171
68500.000			-13.028			-2.171
68601.000			-13.028			-2.171
68700.000			-13.027			-2.171
68800.000			-13.028			-2.171
