# Acquired on 20/12/2023 12:12:31 
# SPIDER: Creep_5mm_07714532B-2
# CREEP MEASUREMENT

# time [ms]		force [N]		stiffness [N/mm]
0.000			-18.128			-3.626
101.000			-19.206			-3.841
201.000			-19.580			-3.916
301.000			-19.559			-3.912
401.000			-19.467			-3.893
500.000			-19.392			-3.878
600.000			-19.281			-3.856
701.000			-19.236			-3.847
800.000			-19.196			-3.839
901.000			-19.159			-3.832
1002.000			-19.126			-3.825
1100.000			-19.097			-3.819
1200.000			-19.069			-3.814
1301.000			-19.043			-3.809
1400.000			-18.997			-3.799
1500.000			-18.976			-3.795
1602.000			-18.956			-3.791
1701.000			-18.937			-3.787
1802.000			-18.919			-3.784
1900.000			-18.902			-3.780
2000.000			-18.886			-3.777
2101.000			-18.854			-3.771
2200.000			-18.840			-3.768
2300.000			-18.827			-3.765
2402.000			-18.815			-3.763
2501.000			-18.802			-3.760
2600.000			-18.790			-3.758
2701.000			-18.777			-3.755
2800.000			-18.754			-3.751
2900.000			-18.744			-3.749
3001.000			-18.734			-3.747
3100.000			-18.724			-3.745
3201.000			-18.713			-3.743
3302.000			-18.703			-3.741
3400.000			-18.695			-3.739
3500.000			-18.685			-3.737
3601.000			-18.667			-3.733
3700.000			-18.659			-3.732
3800.000			-18.652			-3.730
3901.000			-18.644			-3.729
4001.000			-18.635			-3.727
4101.000			-18.627			-3.725
4201.000			-18.619			-3.724
4300.000			-18.606			-3.721
4400.000			-18.598			-3.720
4501.000			-18.590			-3.718
4600.000			-18.583			-3.717
4700.000			-18.578			-3.716
4802.000			-18.572			-3.714
4901.000			-18.565			-3.713
5000.000			-18.553			-3.711
5100.000			-18.547			-3.709
5200.000			-18.540			-3.708
5301.000			-18.534			-3.707
5400.000			-18.530			-3.706
5500.000			-18.524			-3.705
5602.000			-18.518			-3.704
5701.000			-18.512			-3.702
5800.000			-18.501			-3.700
5901.000			-18.496			-3.699
6000.000			-18.490			-3.698
6100.000			-18.486			-3.697
6201.000			-18.480			-3.696
6301.000			-18.476			-3.695
6401.000			-18.471			-3.694
6501.000			-18.461			-3.692
6600.000			-18.456			-3.691
6700.000			-18.452			-3.690
6801.000			-18.447			-3.689
6900.000			-18.444			-3.689
7000.000			-18.438			-3.688
7102.000			-18.434			-3.687
7201.000			-18.425			-3.685
7300.000			-18.421			-3.684
7401.000			-18.418			-3.684
7500.000			-18.414			-3.683
7600.000			-18.408			-3.682
7701.000			-18.404			-3.681
7800.000			-18.401			-3.680
7901.000			-18.398			-3.680
8002.000			-18.390			-3.678
8100.000			-18.385			-3.677
8200.000			-18.381			-3.676
8300.000			-18.377			-3.675
8400.000			-18.375			-3.675
8501.000			-18.370			-3.674
8601.000			-18.367			-3.673
8701.000			-18.360			-3.672
8802.000			-18.357			-3.671
8900.000			-18.353			-3.671
9000.000			-18.349			-3.670
9101.000			-18.345			-3.669
9200.000			-18.343			-3.669
9300.000			-18.340			-3.668
9402.000			-18.333			-3.667
9501.000			-18.329			-3.666
9600.000			-18.326			-3.665
9701.000			-18.324			-3.665
9800.000			-18.320			-3.664
9900.000			-18.318			-3.664
10001.000			-18.315			-3.663
10100.000			-18.311			-3.662
10201.000			-18.305			-3.661
10302.000			-18.301			-3.660
10400.000			-18.298			-3.660
10500.000			-18.296			-3.659
10601.000			-18.292			-3.658
10700.000			-18.289			-3.658
10800.000			-18.286			-3.657
10901.000			-18.282			-3.656
11001.000			-18.278			-3.656
11101.000			-18.275			-3.655
11201.000			-18.272			-3.654
11300.000			-18.269			-3.654
11400.000			-18.267			-3.653
11500.000			-18.264			-3.653
11600.000			-18.261			-3.652
11701.000			-18.256			-3.651
11801.000			-18.255			-3.651
11901.000			-18.252			-3.650
12001.000			-18.249			-3.650
12100.000			-18.247			-3.649
12200.000			-18.244			-3.649
12301.000			-18.241			-3.648
12400.000			-18.236			-3.647
12500.000			-18.234			-3.647
12602.000			-18.231			-3.646
12701.000			-18.229			-3.646
12800.000			-18.227			-3.645
12901.000			-18.225			-3.645
13000.000			-18.222			-3.644
13100.000			-18.218			-3.644
13201.000			-18.215			-3.643
13301.000			-18.214			-3.643
13401.000			-18.212			-3.642
13501.000			-18.210			-3.642
13600.000			-18.206			-3.641
13700.000			-18.204			-3.641
13801.000			-18.202			-3.640
13900.000			-18.197			-3.639
14000.000			-18.195			-3.639
14102.000			-18.192			-3.638
14201.000			-18.190			-3.638
14300.000			-18.189			-3.638
14401.000			-18.187			-3.637
14500.000			-18.184			-3.637
14600.000			-18.181			-3.636
14700.000			-18.178			-3.636
14800.000			-18.176			-3.635
14902.000			-18.174			-3.635
15001.000			-18.172			-3.634
15100.000			-18.170			-3.634
15201.000			-18.168			-3.634
15300.000			-18.167			-3.633
15400.000			-18.161			-3.632
15501.000			-18.159			-3.632
15600.000			-18.157			-3.631
15701.000			-18.156			-3.631
15802.000			-18.154			-3.631
15900.000			-18.151			-3.630
16000.000			-18.150			-3.630
16101.000			-18.146			-3.629
16200.000			-18.145			-3.629
16300.000			-18.144			-3.629
16401.000			-18.141			-3.628
16501.000			-18.139			-3.628
16601.000			-18.136			-3.627
16701.000			-18.135			-3.627
16800.000			-18.131			-3.626
16900.000			-18.129			-3.626
17001.000			-18.129			-3.626
17100.000			-18.126			-3.625
17200.000			-18.124			-3.625
17302.000			-18.122			-3.624
17401.000			-18.121			-3.624
17500.000			-18.119			-3.624
17601.000			-18.115			-3.623
17700.000			-18.114			-3.623
17800.000			-18.111			-3.622
17900.000			-18.110			-3.622
18000.000			-18.109			-3.622
18102.000			-18.107			-3.621
18201.000			-18.105			-3.621
18300.000			-18.103			-3.621
18401.000			-18.100			-3.620
18500.000			-18.099			-3.620
18600.000			-18.097			-3.619
18701.000			-18.095			-3.619
18800.000			-18.094			-3.619
18901.000			-18.093			-3.619
19002.000			-18.089			-3.618
19100.000			-18.088			-3.618
19200.000			-18.085			-3.617
19301.000			-18.084			-3.617
19400.000			-18.084			-3.617
19500.000			-18.082			-3.616
19601.000			-18.080			-3.616
19701.000			-18.078			-3.616
19801.000			-18.075			-3.615
19901.000			-18.073			-3.615
20000.000			-18.072			-3.614
20100.000			-18.070			-3.614
20201.000			-18.068			-3.614
20300.000			-18.067			-3.613
20400.000			-18.066			-3.613
20502.000			-18.062			-3.612
20601.000			-18.061			-3.612
20700.000			-18.060			-3.612
20801.000			-18.058			-3.612
20900.000			-18.056			-3.611
21000.000			-18.055			-3.611
21100.000			-18.053			-3.611
21201.000			-18.051			-3.610
21302.000			-18.049			-3.610
21400.000			-18.048			-3.610
21500.000			-18.046			-3.609
21601.000			-18.046			-3.609
21700.000			-18.044			-3.609
21800.000			-18.042			-3.608
21901.000			-18.041			-3.608
22001.000			-18.038			-3.608
22101.000			-18.036			-3.607
22201.000			-18.035			-3.607
22300.000			-18.034			-3.607
22400.000			-18.034			-3.607
22501.000			-18.031			-3.606
22600.000			-18.031			-3.606
22700.000			-18.027			-3.605
22802.000			-18.026			-3.605
22901.000			-18.025			-3.605
23000.000			-18.024			-3.605
23101.000			-18.022			-3.604
23200.000			-18.020			-3.604
23300.000			-18.020			-3.604
23401.000			-18.018			-3.604
23501.000			-18.014			-3.603
23601.000			-18.014			-3.603
23701.000			-18.012			-3.602
23800.000			-18.011			-3.602
23900.000			-18.010			-3.602
24001.000			-18.009			-3.602
24100.000			-18.007			-3.601
24200.000			-18.004			-3.601
24302.000			-18.003			-3.601
24401.000			-18.002			-3.600
24501.000			-18.002			-3.600
24600.000			-18.001			-3.600
24700.000			-18.000			-3.600
24801.000			-17.999			-3.600
24900.000			-17.995			-3.599
25000.000			-17.993			-3.599
25102.000			-17.991			-3.598
25201.000			-17.991			-3.598
25300.000			-17.991			-3.598
25401.000			-17.990			-3.598
25500.000			-17.987			-3.597
25600.000			-17.987			-3.597
25701.000			-17.984			-3.597
25800.000			-17.982			-3.596
25900.000			-17.980			-3.596
26002.000			-17.980			-3.596
26101.000			-17.980			-3.596
26200.000			-17.978			-3.596
26301.000			-17.977			-3.595
26400.000			-17.975			-3.595
26500.000			-17.974			-3.595
26601.000			-17.973			-3.595
26700.000			-17.971			-3.594
26801.000			-17.969			-3.594
26902.000			-17.968			-3.594
27000.000			-17.968			-3.594
27100.000			-17.966			-3.593
27201.000			-17.965			-3.593
27300.000			-17.964			-3.593
27400.000			-17.962			-3.592
27500.000			-17.961			-3.592
27601.000			-17.960			-3.592
27702.000			-17.959			-3.592
27801.000			-17.957			-3.591
27900.000			-17.955			-3.591
28001.000			-17.955			-3.591
28100.000			-17.954			-3.591
28200.000			-17.952			-3.590
28301.000			-17.951			-3.590
28401.000			-17.949			-3.590
28501.000			-17.950			-3.590
28602.000			-17.945			-3.589
28700.000			-17.945			-3.589
28800.000			-17.944			-3.589
28901.000			-17.943			-3.589
29000.000			-17.942			-3.588
29100.000			-17.941			-3.588
29201.000			-17.940			-3.588
29301.000			-17.938			-3.588
29401.000			-17.936			-3.587
29501.000			-17.935			-3.587
29600.000			-17.935			-3.587
29700.000			-17.934			-3.587
29801.000			-17.932			-3.586
29900.000			-17.931			-3.586
30000.000			-17.931			-3.586
30102.000			-17.929			-3.586
30201.000			-17.928			-3.586
30300.000			-17.927			-3.585
30401.000			-17.926			-3.585
30500.000			-17.924			-3.585
30600.000			-17.924			-3.585
30700.000			-17.923			-3.585
30800.000			-17.919			-3.584
30902.000			-17.920			-3.584
31001.000			-17.919			-3.584
31100.000			-17.917			-3.583
31201.000			-17.916			-3.583
31300.000			-17.916			-3.583
31400.000			-17.914			-3.583
31501.000			-17.913			-3.583
31600.000			-17.912			-3.582
31701.000			-17.911			-3.582
31802.000			-17.909			-3.582
31900.000			-17.909			-3.582
32000.000			-17.907			-3.581
32101.000			-17.906			-3.581
32200.000			-17.906			-3.581
32300.000			-17.904			-3.581
32401.000			-17.904			-3.581
32501.000			-17.902			-3.580
32601.000			-17.902			-3.580
32701.000			-17.900			-3.580
32800.000			-17.899			-3.580
32900.000			-17.898			-3.580
33001.000			-17.896			-3.579
33100.000			-17.895			-3.579
33200.000			-17.895			-3.579
33302.000			-17.893			-3.579
33401.000			-17.893			-3.579
33500.000			-17.892			-3.578
33601.000			-17.891			-3.578
33700.000			-17.889			-3.578
33800.000			-17.889			-3.578
33900.000			-17.887			-3.577
34000.000			-17.886			-3.577
34102.000			-17.885			-3.577
34201.000			-17.885			-3.577
34300.000			-17.883			-3.577
34401.000			-17.882			-3.576
34500.000			-17.881			-3.576
34600.000			-17.880			-3.576
34701.000			-17.880			-3.576
34800.000			-17.878			-3.576
34901.000			-17.878			-3.576
35002.000			-17.877			-3.575
35100.000			-17.876			-3.575
35200.000			-17.875			-3.575
35301.000			-17.872			-3.574
35400.000			-17.872			-3.574
35500.000			-17.872			-3.574
35601.000			-17.871			-3.574
35701.000			-17.870			-3.574
35801.000			-17.869			-3.574
35902.000			-17.868			-3.574
36000.000			-17.866			-3.573
36100.000			-17.866			-3.573
36201.000			-17.865			-3.573
36300.000			-17.863			-3.573
36400.000			-17.862			-3.572
36501.000			-17.862			-3.572
36601.000			-17.861			-3.572
36701.000			-17.859			-3.572
36801.000			-17.857			-3.571
36900.000			-17.857			-3.571
37000.000			-17.857			-3.571
37100.000			-17.856			-3.571
37200.000			-17.854			-3.571
37301.000			-17.854			-3.571
37401.000			-17.853			-3.571
37501.000			-17.852			-3.570
37601.000			-17.852			-3.570
37700.000			-17.851			-3.570
37800.000			-17.849			-3.570
37901.000			-17.848			-3.570
38000.000			-17.847			-3.569
38100.000			-17.847			-3.569
38202.000			-17.846			-3.569
38301.000			-17.846			-3.569
38400.000			-17.845			-3.569
38501.000			-17.843			-3.569
38600.000			-17.843			-3.569
38700.000			-17.842			-3.568
38801.000			-17.841			-3.568
38900.000			-17.839			-3.568
39001.000			-17.838			-3.568
39102.000			-17.838			-3.568
39200.000			-17.836			-3.567
39300.000			-17.835			-3.567
39401.000			-17.834			-3.567
39500.000			-17.834			-3.567
39600.000			-17.833			-3.567
39701.000			-17.832			-3.566
39801.000			-17.831			-3.566
39901.000			-17.830			-3.566
40001.000			-17.830			-3.566
40100.000			-17.829			-3.566
40200.000			-17.827			-3.565
40300.000			-17.826			-3.565
40400.000			-17.826			-3.565
40501.000			-17.824			-3.565
40601.000			-17.824			-3.565
40701.000			-17.824			-3.565
40801.000			-17.823			-3.565
40900.000			-17.822			-3.564
41000.000			-17.821			-3.564
41101.000			-17.819			-3.564
41200.000			-17.818			-3.564
41300.000			-17.817			-3.563
41402.000			-17.817			-3.563
41501.000			-17.817			-3.563
41600.000			-17.815			-3.563
41701.000			-17.814			-3.563
41800.000			-17.813			-3.563
41900.000			-17.814			-3.563
42001.000			-17.813			-3.563
42100.000			-17.811			-3.562
42201.000			-17.810			-3.562
42302.000			-17.809			-3.562
42400.000			-17.809			-3.562
42500.000			-17.808			-3.562
42601.000			-17.807			-3.561
42700.000			-17.806			-3.561
42800.000			-17.805			-3.561
42901.000			-17.805			-3.561
43001.000			-17.804			-3.561
43101.000			-17.803			-3.561
43201.000			-17.802			-3.560
43300.000			-17.800			-3.560
43400.000			-17.800			-3.560
43500.000			-17.800			-3.560
43600.000			-17.799			-3.560
43701.000			-17.799			-3.560
43801.000			-17.798			-3.560
43901.000			-17.797			-3.559
44001.000			-17.796			-3.559
44100.000			-17.794			-3.559
44200.000			-17.794			-3.559
44301.000			-17.793			-3.559
44400.000			-17.793			-3.559
44500.000			-17.792			-3.558
44602.000			-17.791			-3.558
44701.000			-17.790			-3.558
44800.000			-17.789			-3.558
44901.000			-17.788			-3.558
45000.000			-17.788			-3.558
45100.000			-17.787			-3.557
45201.000			-17.785			-3.557
45300.000			-17.786			-3.557
45400.000			-17.785			-3.557
45502.000			-17.784			-3.557
45601.000			-17.782			-3.556
45700.000			-17.781			-3.556
45801.000			-17.781			-3.556
45900.000			-17.780			-3.556
46000.000			-17.780			-3.556
46101.000			-17.779			-3.556
46200.000			-17.779			-3.556
46301.000			-17.777			-3.555
46402.000			-17.777			-3.555
46500.000			-17.776			-3.555
46600.000			-17.776			-3.555
46700.000			-17.775			-3.555
46800.000			-17.774			-3.555
46901.000			-17.773			-3.555
47000.000			-17.771			-3.554
47101.000			-17.771			-3.554
47202.000			-17.770			-3.554
47300.000			-17.770			-3.554
47400.000			-17.770			-3.554
47501.000			-17.769			-3.554
47600.000			-17.768			-3.554
47700.000			-17.768			-3.554
47801.000			-17.766			-3.553
47901.000			-17.764			-3.553
48001.000			-17.765			-3.553
48101.000			-17.765			-3.553
48200.000			-17.763			-3.553
48300.000			-17.762			-3.552
48401.000			-17.762			-3.552
48500.000			-17.760			-3.552
48600.000			-17.760			-3.552
48701.000			-17.760			-3.552
48801.000			-17.759			-3.552
48901.000			-17.757			-3.551
49001.000			-17.757			-3.551
49100.000			-17.757			-3.551
49200.000			-17.755			-3.551
49301.000			-17.754			-3.551
49400.000			-17.754			-3.551
49500.000			-17.754			-3.551
49602.000			-17.753			-3.551
49701.000			-17.753			-3.551
49800.000			-17.752			-3.550
49900.000			-17.751			-3.550
50000.000			-17.750			-3.550
50101.000			-17.750			-3.550
50200.000			-17.749			-3.550
50300.000			-17.749			-3.550
50402.000			-17.748			-3.550
50501.000			-17.748			-3.550
50601.000			-17.747			-3.549
50701.000			-17.746			-3.549
50800.000			-17.744			-3.549
50900.000			-17.743			-3.549
51001.000			-17.742			-3.548
51100.000			-17.742			-3.548
51201.000			-17.742			-3.548
51302.000			-17.740			-3.548
51400.000			-17.740			-3.548
51500.000			-17.739			-3.548
51601.000			-17.739			-3.548
51700.000			-17.737			-3.547
51800.000			-17.738			-3.548
51901.000			-17.737			-3.547
52001.000			-17.737			-3.547
52101.000			-17.736			-3.547
52201.000			-17.735			-3.547
52300.000			-17.734			-3.547
52400.000			-17.734			-3.547
52501.000			-17.734			-3.547
52600.000			-17.733			-3.547
52700.000			-17.732			-3.546
52802.000			-17.732			-3.546
52901.000			-17.730			-3.546
53000.000			-17.730			-3.546
53100.000			-17.729			-3.546
53200.000			-17.728			-3.546
53301.000			-17.727			-3.545
53400.000			-17.726			-3.545
53500.000			-17.726			-3.545
53602.000			-17.725			-3.545
53701.000			-17.725			-3.545
53800.000			-17.724			-3.545
53901.000			-17.724			-3.545
54000.000			-17.723			-3.545
54100.000			-17.723			-3.545
54201.000			-17.724			-3.545
54300.000			-17.723			-3.545
54401.000			-17.720			-3.544
54502.000			-17.720			-3.544
54600.000			-17.719			-3.544
54700.000			-17.719			-3.544
54801.000			-17.717			-3.543
54900.000			-17.716			-3.543
55000.000			-17.716			-3.543
55101.000			-17.715			-3.543
55201.000			-17.714			-3.543
55301.000			-17.714			-3.543
55401.000			-17.714			-3.543
55500.000			-17.713			-3.543
55600.000			-17.713			-3.543
55701.000			-17.713			-3.543
55800.000			-17.712			-3.542
55900.000			-17.710			-3.542
56002.000			-17.709			-3.542
56101.000			-17.709			-3.542
56200.000			-17.708			-3.542
56300.000			-17.709			-3.542
56400.000			-17.709			-3.542
56501.000			-17.707			-3.541
56600.000			-17.706			-3.541
56700.000			-17.706			-3.541
56801.000			-17.706			-3.541
56901.000			-17.704			-3.541
57001.000			-17.705			-3.541
57101.000			-17.703			-3.541
57200.000			-17.702			-3.540
57300.000			-17.701			-3.540
57401.000			-17.701			-3.540
57500.000			-17.700			-3.540
57600.000			-17.699			-3.540
57702.000			-17.699			-3.540
57801.000			-17.699			-3.540
57900.000			-17.698			-3.540
58001.000			-17.697			-3.539
58100.000			-17.698			-3.540
58200.000			-17.696			-3.539
58301.000			-17.695			-3.539
58400.000			-17.695			-3.539
58501.000			-17.695			-3.539
58602.000			-17.694			-3.539
58700.000			-17.695			-3.539
58800.000			-17.693			-3.539
58901.000			-17.692			-3.538
59000.000			-17.692			-3.538
59100.000			-17.691			-3.538
59201.000			-17.690			-3.538
59301.000			-17.689			-3.538
59402.000			-17.689			-3.538
59501.000			-17.689			-3.538
59600.000			-17.688			-3.538
59701.000			-17.687			-3.537
59800.000			-17.687			-3.537
59900.000			-17.685			-3.537
60001.000			-17.685			-3.537
60100.000			-17.685			-3.537
60201.000			-17.685			-3.537
60302.000			-17.684			-3.537
60400.000			-17.683			-3.537
60500.000			-17.683			-3.537
60601.000			-17.682			-3.536
60700.000			-17.681			-3.536
60800.000			-17.680			-3.536
60901.000			-17.680			-3.536
61001.000			-17.679			-3.536
61101.000			-17.678			-3.536
61201.000			-17.679			-3.536
61300.000			-17.678			-3.536
61400.000			-17.678			-3.536
61501.000			-17.677			-3.535
61600.000			-17.677			-3.535
61700.000			-17.676			-3.535
61802.000			-17.675			-3.535
61901.000			-17.674			-3.535
62000.000			-17.674			-3.535
62101.000			-17.673			-3.535
62200.000			-17.674			-3.535
62300.000			-17.673			-3.535
62401.000			-17.671			-3.534
62500.000			-17.670			-3.534
62602.000			-17.671			-3.534
62701.000			-17.670			-3.534
62800.000			-17.670			-3.534
62901.000			-17.670			-3.534
63000.000			-17.668			-3.534
63100.000			-17.669			-3.534
63201.000			-17.667			-3.533
63300.000			-17.667			-3.533
63401.000			-17.666			-3.533
63502.000			-17.665			-3.533
63601.000			-17.665			-3.533
63700.000			-17.665			-3.533
63801.000			-17.664			-3.533
63900.000			-17.662			-3.532
64000.000			-17.663			-3.533
64101.000			-17.662			-3.532
64201.000			-17.663			-3.533
64301.000			-17.661			-3.532
64402.000			-17.661			-3.532
64500.000			-17.660			-3.532
64600.000			-17.658			-3.532
64701.000			-17.658			-3.532
64800.000			-17.658			-3.532
64900.000			-17.657			-3.531
65001.000			-17.657			-3.531
65101.000			-17.657			-3.531
65201.000			-17.657			-3.531
65301.000			-17.656			-3.531
65400.000			-17.655			-3.531
65500.000			-17.656			-3.531
65601.000			-17.655			-3.531
65700.000			-17.654			-3.531
65800.000			-17.653			-3.531
65902.000			-17.653			-3.531
66001.000			-17.653			-3.531
66101.000			-17.651			-3.530
66200.000			-17.651			-3.530
66300.000			-17.650			-3.530
66401.000			-17.649			-3.530
66500.000			-17.649			-3.530
66600.000			-17.650			-3.530
66702.000			-17.649			-3.530
66801.000			-17.648			-3.530
66900.000			-17.647			-3.529
67001.000			-17.647			-3.529
67100.000			-17.646			-3.529
67200.000			-17.647			-3.529
67301.000			-17.645			-3.529
67400.000			-17.644			-3.529
67500.000			-17.644			-3.529
67602.000			-17.644			-3.529
67701.000			-17.644			-3.529
67800.000			-17.643			-3.529
67901.000			-17.642			-3.528
68000.000			-17.642			-3.528
68100.000			-17.641			-3.528
68201.000			-17.641			-3.528
68300.000			-17.640			-3.528
68401.000			-17.640			-3.528
68502.000			-17.639			-3.528
68600.000			-17.638			-3.528
68700.000			-17.637			-3.527
68801.000			-17.637			-3.527
