# Acquired on 26/01/2024 13:29:40 
# SPIDER: Creep_5mm_HM077x145x38AA-1
# CREEP MEASUREMENT

# time [ms]		force [N]		stiffness [N/mm]
0.000			-24.517			-4.903
105.000			-25.402			-5.080
204.000			-25.631			-5.126
303.000			-25.585			-5.117
405.000			-25.523			-5.105
504.000			-25.434			-5.087
604.000			-25.398			-5.080
705.000			-25.364			-5.073
803.000			-25.334			-5.067
904.000			-25.307			-5.061
1005.000			-25.283			-5.057
1104.000			-25.258			-5.052
1204.000			-25.217			-5.043
1305.000			-25.197			-5.039
1404.000			-25.178			-5.036
1503.000			-25.161			-5.032
1605.000			-25.146			-5.029
1704.000			-25.130			-5.026
1804.000			-25.115			-5.023
1905.000			-25.101			-5.020
2003.000			-25.075			-5.015
2104.000			-25.062			-5.012
2205.000			-25.048			-5.010
2304.000			-25.036			-5.007
2404.000			-25.025			-5.005
2504.000			-25.013			-5.003
2604.000			-25.001			-5.000
2704.000			-24.982			-4.996
2804.000			-24.973			-4.995
2904.000			-24.963			-4.993
3005.000			-24.953			-4.991
3104.000			-24.944			-4.989
3203.000			-24.935			-4.987
3305.000			-24.926			-4.985
3404.000			-24.910			-4.982
3504.000			-24.901			-4.980
3605.000			-24.893			-4.979
3704.000			-24.886			-4.977
3804.000			-24.878			-4.976
3904.000			-24.870			-4.974
4004.000			-24.863			-4.973
4104.000			-24.856			-4.971
4205.000			-24.842			-4.968
4304.000			-24.836			-4.967
4403.000			-24.827			-4.965
4505.000			-24.821			-4.964
4604.000			-24.815			-4.963
4704.000			-24.808			-4.962
4805.000			-24.803			-4.961
4904.000			-24.791			-4.958
5004.000			-24.784			-4.957
5104.000			-24.777			-4.955
5204.000			-24.772			-4.954
5304.000			-24.767			-4.953
5405.000			-24.762			-4.952
5504.000			-24.756			-4.951
5604.000			-24.745			-4.949
5705.000			-24.739			-4.948
5803.000			-24.734			-4.947
5905.000			-24.730			-4.946
6004.000			-24.726			-4.945
6104.000			-24.721			-4.944
6205.000			-24.715			-4.943
6303.000			-24.710			-4.942
6404.000			-24.700			-4.940
6505.000			-24.696			-4.939
6604.000			-24.692			-4.938
6704.000			-24.687			-4.937
6805.000			-24.682			-4.936
6904.000			-24.677			-4.935
7003.000			-24.674			-4.935
7105.000			-24.665			-4.933
7204.000			-24.660			-4.932
7304.000			-24.655			-4.931
7405.000			-24.652			-4.930
7504.000			-24.648			-4.930
7604.000			-24.644			-4.929
7704.000			-24.640			-4.928
7804.000			-24.633			-4.927
7904.000			-24.629			-4.926
8005.000			-24.625			-4.925
8104.000			-24.621			-4.924
8203.000			-24.617			-4.923
8305.000			-24.613			-4.923
8404.000			-24.609			-4.922
8504.000			-24.602			-4.920
8605.000			-24.598			-4.920
8704.000			-24.595			-4.919
8804.000			-24.590			-4.918
8903.000			-24.587			-4.917
9004.000			-24.584			-4.917
9105.000			-24.581			-4.916
9204.000			-24.578			-4.916
9304.000			-24.571			-4.914
9405.000			-24.568			-4.914
9504.000			-24.565			-4.913
9603.000			-24.561			-4.912
9705.000			-24.557			-4.911
9804.000			-24.555			-4.911
9904.000			-24.552			-4.910
10005.000			-24.544			-4.909
10104.000			-24.542			-4.908
10204.000			-24.539			-4.908
10304.000			-24.536			-4.907
10404.000			-24.533			-4.907
10504.000			-24.529			-4.906
10605.000			-24.526			-4.905
10704.000			-24.522			-4.904
10803.000			-24.518			-4.904
10905.000			-24.514			-4.903
11004.000			-24.512			-4.902
11104.000			-24.509			-4.902
11205.000			-24.507			-4.901
11304.000			-24.504			-4.901
11404.000			-24.498			-4.900
11504.000			-24.495			-4.899
11604.000			-24.492			-4.898
11704.000			-24.489			-4.898
11805.000			-24.488			-4.898
11904.000			-24.485			-4.897
12004.000			-24.482			-4.896
12105.000			-24.479			-4.896
12203.000			-24.475			-4.895
12305.000			-24.472			-4.894
12404.000			-24.468			-4.894
12504.000			-24.466			-4.893
12605.000			-24.463			-4.893
12704.000			-24.460			-4.892
12804.000			-24.458			-4.892
12904.000			-24.453			-4.891
13004.000			-24.451			-4.890
13104.000			-24.448			-4.890
13205.000			-24.446			-4.889
13304.000			-24.444			-4.889
13404.000			-24.442			-4.888
13505.000			-24.439			-4.888
13603.000			-24.434			-4.887
13704.000			-24.432			-4.886
13805.000			-24.430			-4.886
13904.000			-24.427			-4.885
14004.000			-24.425			-4.885
14104.000			-24.423			-4.885
14204.000			-24.421			-4.884
14304.000			-24.419			-4.884
14405.000			-24.413			-4.883
14504.000			-24.411			-4.882
14604.000			-24.409			-4.882
14705.000			-24.407			-4.881
14803.000			-24.405			-4.881
14904.000			-24.403			-4.881
15005.000			-24.402			-4.880
15104.000			-24.396			-4.879
15204.000			-24.394			-4.879
15304.000			-24.391			-4.878
15404.000			-24.389			-4.878
15504.000			-24.388			-4.878
15604.000			-24.385			-4.877
15704.000			-24.383			-4.877
15805.000			-24.379			-4.876
15904.000			-24.377			-4.875
16004.000			-24.375			-4.875
16105.000			-24.372			-4.874
16203.000			-24.369			-4.874
16304.000			-24.368			-4.874
16405.000			-24.367			-4.873
16504.000			-24.363			-4.873
16604.000			-24.361			-4.872
16705.000			-24.359			-4.872
16804.000			-24.356			-4.871
16903.000			-24.355			-4.871
17005.000			-24.353			-4.871
17104.000			-24.352			-4.870
17204.000			-24.349			-4.870
17305.000			-24.346			-4.869
17404.000			-24.344			-4.869
17504.000			-24.342			-4.868
17604.000			-24.339			-4.868
17704.000			-24.337			-4.867
17804.000			-24.335			-4.867
17905.000			-24.334			-4.867
18004.000			-24.331			-4.866
18103.000			-24.330			-4.866
18205.000			-24.328			-4.866
18304.000			-24.325			-4.865
18404.000			-24.323			-4.865
18505.000			-24.321			-4.864
18604.000			-24.319			-4.864
18705.000			-24.316			-4.863
18803.000			-24.315			-4.863
18904.000			-24.313			-4.863
19005.000			-24.311			-4.862
19104.000			-24.309			-4.862
19204.000			-24.307			-4.861
19305.000			-24.305			-4.861
19404.000			-24.304			-4.861
19503.000			-24.301			-4.860
19605.000			-24.300			-4.860
19704.000			-24.298			-4.860
19804.000			-24.295			-4.859
19905.000			-24.294			-4.859
20004.000			-24.291			-4.858
20104.000			-24.290			-4.858
20204.000			-24.287			-4.857
20304.000			-24.285			-4.857
20404.000			-24.284			-4.857
20505.000			-24.283			-4.857
20604.000			-24.282			-4.856
20704.000			-24.280			-4.856
20805.000			-24.277			-4.855
20903.000			-24.274			-4.855
21004.000			-24.272			-4.854
21105.000			-24.270			-4.854
21204.000			-24.269			-4.854
21304.000			-24.267			-4.853
21404.000			-24.266			-4.853
21504.000			-24.265			-4.853
21604.000			-24.262			-4.852
21704.000			-24.260			-4.852
21804.000			-24.259			-4.852
21905.000			-24.257			-4.851
22004.000			-24.255			-4.851
22103.000			-24.253			-4.851
22205.000			-24.253			-4.851
22304.000			-24.251			-4.850
22404.000			-24.248			-4.850
22505.000			-24.247			-4.849
22604.000			-24.244			-4.849
22704.000			-24.244			-4.849
22804.000			-24.242			-4.848
22904.000			-24.240			-4.848
23004.000			-24.240			-4.848
23105.000			-24.236			-4.847
23204.000			-24.236			-4.847
23304.000			-24.234			-4.847
23405.000			-24.232			-4.846
23503.000			-24.230			-4.846
23604.000			-24.228			-4.846
23705.000			-24.227			-4.845
23804.000			-24.225			-4.845
23904.000			-24.223			-4.845
24004.000			-24.221			-4.844
24104.000			-24.220			-4.844
24204.000			-24.219			-4.844
24305.000			-24.217			-4.843
24404.000			-24.216			-4.843
24504.000			-24.214			-4.843
24605.000			-24.212			-4.842
24703.000			-24.211			-4.842
24804.000			-24.209			-4.842
24905.000			-24.208			-4.842
25004.000			-24.206			-4.841
25105.000			-24.204			-4.841
25204.000			-24.203			-4.841
25304.000			-24.201			-4.840
25404.000			-24.200			-4.840
25504.000			-24.198			-4.840
25604.000			-24.197			-4.839
25705.000			-24.196			-4.839
25804.000			-24.194			-4.839
25904.000			-24.192			-4.838
26005.000			-24.190			-4.838
26103.000			-24.189			-4.838
26204.000			-24.188			-4.838
26305.000			-24.186			-4.837
26404.000			-24.185			-4.837
26504.000			-24.183			-4.837
26605.000			-24.182			-4.836
26704.000			-24.181			-4.836
26803.000			-24.179			-4.836
26905.000			-24.178			-4.836
27004.000			-24.176			-4.835
27104.000			-24.175			-4.835
27205.000			-24.174			-4.835
27303.000			-24.173			-4.835
27404.000			-24.171			-4.834
27505.000			-24.169			-4.834
27604.000			-24.168			-4.834
27704.000			-24.166			-4.833
27805.000			-24.165			-4.833
27904.000			-24.164			-4.833
28003.000			-24.162			-4.832
28105.000			-24.161			-4.832
28204.000			-24.159			-4.832
28305.000			-24.159			-4.832
28404.000			-24.156			-4.831
28504.000			-24.155			-4.831
28605.000			-24.154			-4.831
28703.000			-24.153			-4.831
28804.000			-24.152			-4.830
28905.000			-24.150			-4.830
29004.000			-24.148			-4.830
29104.000			-24.147			-4.829
29205.000			-24.146			-4.829
29304.000			-24.145			-4.829
29403.000			-24.143			-4.829
29505.000			-24.142			-4.828
29604.000			-24.140			-4.828
29704.000			-24.139			-4.828
29805.000			-24.138			-4.828
29904.000			-24.137			-4.827
30004.000			-24.136			-4.827
30104.000			-24.135			-4.827
30204.000			-24.134			-4.827
30304.000			-24.133			-4.827
30405.000			-24.130			-4.826
30504.000			-24.130			-4.826
30603.000			-24.128			-4.826
30705.000			-24.126			-4.825
30804.000			-24.125			-4.825
30904.000			-24.124			-4.825
31005.000			-24.123			-4.825
31104.000			-24.122			-4.824
31204.000			-24.121			-4.824
31303.000			-24.119			-4.824
31404.000			-24.118			-4.824
31505.000			-24.117			-4.823
31604.000			-24.116			-4.823
31704.000			-24.115			-4.823
31804.000			-24.113			-4.823
31904.000			-24.112			-4.822
32003.000			-24.110			-4.822
32105.000			-24.108			-4.822
32204.000			-24.106			-4.821
32304.000			-24.106			-4.821
32405.000			-24.105			-4.821
32503.000			-24.104			-4.821
32604.000			-24.103			-4.821
32705.000			-24.102			-4.820
32804.000			-24.101			-4.820
32904.000			-24.099			-4.820
33005.000			-24.098			-4.820
33104.000			-24.097			-4.819
33203.000			-24.097			-4.819
33305.000			-24.095			-4.819
33404.000			-24.093			-4.819
33504.000			-24.092			-4.818
33605.000			-24.091			-4.818
33703.000			-24.090			-4.818
33804.000			-24.088			-4.818
33905.000			-24.088			-4.818
34004.000			-24.086			-4.817
34104.000			-24.084			-4.817
34205.000			-24.084			-4.817
34304.000			-24.083			-4.817
34403.000			-24.081			-4.816
34505.000			-24.080			-4.816
34604.000			-24.081			-4.816
34705.000			-24.078			-4.816
34804.000			-24.076			-4.815
34904.000			-24.076			-4.815
35005.000			-24.075			-4.815
35103.000			-24.073			-4.815
35204.000			-24.072			-4.814
35305.000			-24.072			-4.814
35404.000			-24.071			-4.814
35504.000			-24.068			-4.814
35605.000			-24.068			-4.814
35704.000			-24.066			-4.813
35803.000			-24.066			-4.813
35905.000			-24.065			-4.813
36004.000			-24.063			-4.813
36104.000			-24.063			-4.813
36205.000			-24.062			-4.812
36304.000			-24.059			-4.812
36404.000			-24.059			-4.812
36504.000			-24.058			-4.812
36604.000			-24.057			-4.811
36704.000			-24.057			-4.811
36805.000			-24.055			-4.811
36904.000			-24.053			-4.811
37004.000			-24.053			-4.811
37105.000			-24.053			-4.811
37203.000			-24.051			-4.810
37304.000			-24.049			-4.810
37405.000			-24.048			-4.810
37504.000			-24.048			-4.810
37604.000			-24.047			-4.809
37704.000			-24.044			-4.809
37804.000			-24.044			-4.809
37904.000			-24.042			-4.808
38004.000			-24.042			-4.808
38104.000			-24.042			-4.808
38205.000			-24.041			-4.808
38304.000			-24.038			-4.808
38403.000			-24.036			-4.807
38505.000			-24.037			-4.807
38604.000			-24.037			-4.807
38704.000			-24.035			-4.807
38805.000			-24.035			-4.807
38904.000			-24.033			-4.807
39004.000			-24.033			-4.807
39104.000			-24.032			-4.806
39204.000			-24.030			-4.806
39304.000			-24.029			-4.806
39405.000			-24.029			-4.806
39504.000			-24.028			-4.806
39604.000			-24.027			-4.805
39705.000			-24.026			-4.805
39803.000			-24.024			-4.805
39904.000			-24.023			-4.805
40005.000			-24.022			-4.804
40104.000			-24.021			-4.804
40204.000			-24.021			-4.804
40304.000			-24.019			-4.804
40404.000			-24.018			-4.804
40504.000			-24.018			-4.804
40605.000			-24.016			-4.803
40704.000			-24.016			-4.803
40804.000			-24.014			-4.803
40905.000			-24.014			-4.803
41003.000			-24.012			-4.802
41105.000			-24.011			-4.802
41204.000			-24.009			-4.802
41304.000			-24.007			-4.801
41405.000			-24.008			-4.802
41504.000			-24.008			-4.802
41604.000			-24.007			-4.801
41704.000			-24.005			-4.801
41804.000			-24.004			-4.801
41904.000			-24.003			-4.801
42005.000			-24.002			-4.800
42104.000			-24.001			-4.800
42203.000			-24.001			-4.800
42305.000			-24.000			-4.800
42404.000			-23.999			-4.800
42504.000			-23.998			-4.800
42605.000			-23.998			-4.800
42704.000			-23.997			-4.799
42804.000			-23.994			-4.799
42904.000			-23.994			-4.799
43004.000			-23.993			-4.799
43104.000			-23.991			-4.798
43205.000			-23.991			-4.798
43304.000			-23.990			-4.798
43404.000			-23.989			-4.798
43505.000			-23.987			-4.797
43603.000			-23.987			-4.797
43704.000			-23.986			-4.797
43805.000			-23.985			-4.797
43904.000			-23.985			-4.797
44004.000			-23.984			-4.797
44104.000			-23.983			-4.797
44204.000			-23.982			-4.796
44304.000			-23.981			-4.796
44404.000			-23.981			-4.796
44504.000			-23.980			-4.796
44605.000			-23.979			-4.796
44704.000			-23.978			-4.796
44804.000			-23.976			-4.795
44905.000			-23.976			-4.795
45003.000			-23.975			-4.795
45104.000			-23.974			-4.795
45205.000			-23.973			-4.795
45304.000			-23.972			-4.794
45404.000			-23.972			-4.794
45505.000			-23.971			-4.794
45604.000			-23.971			-4.794
45703.000			-23.969			-4.794
45805.000			-23.968			-4.794
45904.000			-23.967			-4.793
46004.000			-23.965			-4.793
46105.000			-23.965			-4.793
46204.000			-23.965			-4.793
46304.000			-23.963			-4.793
46404.000			-23.962			-4.792
46504.000			-23.961			-4.792
46604.000			-23.960			-4.792
46705.000			-23.960			-4.792
46804.000			-23.959			-4.792
46904.000			-23.958			-4.792
47005.000			-23.959			-4.792
47103.000			-23.957			-4.791
47204.000			-23.956			-4.791
47305.000			-23.955			-4.791
47404.000			-23.954			-4.791
47505.000			-23.954			-4.791
47604.000			-23.952			-4.790
47704.000			-23.952			-4.790
47804.000			-23.951			-4.790
47904.000			-23.950			-4.790
48003.000			-23.949			-4.790
48105.000			-23.948			-4.790
48204.000			-23.947			-4.789
48304.000			-23.947			-4.789
48405.000			-23.947			-4.789
48504.000			-23.946			-4.789
48604.000			-23.944			-4.789
48704.000			-23.943			-4.789
48804.000			-23.942			-4.788
48904.000			-23.942			-4.788
49005.000			-23.941			-4.788
49104.000			-23.940			-4.788
49204.000			-23.939			-4.788
49305.000			-23.937			-4.787
49403.000			-23.936			-4.787
49504.000			-23.936			-4.787
49605.000			-23.935			-4.787
49704.000			-23.935			-4.787
49804.000			-23.934			-4.787
49905.000			-23.933			-4.787
50004.000			-23.932			-4.786
50103.000			-23.932			-4.786
50205.000			-23.931			-4.786
50304.000			-23.930			-4.786
50404.000			-23.929			-4.786
50505.000			-23.929			-4.786
50604.000			-23.928			-4.786
50705.000			-23.927			-4.785
50803.000			-23.926			-4.785
50904.000			-23.925			-4.785
51005.000			-23.924			-4.785
51104.000			-23.923			-4.785
51204.000			-23.922			-4.784
51304.000			-23.921			-4.784
51404.000			-23.921			-4.784
51503.000			-23.918			-4.784
51605.000			-23.918			-4.784
51704.000			-23.917			-4.783
51804.000			-23.917			-4.783
51905.000			-23.916			-4.783
52003.000			-23.916			-4.783
52104.000			-23.916			-4.783
52205.000			-23.914			-4.783
52304.000			-23.914			-4.783
52404.000			-23.913			-4.783
52505.000			-23.912			-4.782
52604.000			-23.911			-4.782
52703.000			-23.910			-4.782
52805.000			-23.909			-4.782
52904.000			-23.909			-4.782
53004.000			-23.908			-4.782
53105.000			-23.907			-4.781
53204.000			-23.906			-4.781
53304.000			-23.906			-4.781
53404.000			-23.906			-4.781
53504.000			-23.904			-4.781
53604.000			-23.903			-4.781
53704.000			-23.902			-4.780
53804.000			-23.901			-4.780
53905.000			-23.901			-4.780
54004.000			-23.902			-4.780
54103.000			-23.901			-4.780
54205.000			-23.900			-4.780
54304.000			-23.899			-4.780
54404.000			-23.897			-4.779
54505.000			-23.896			-4.779
54604.000			-23.896			-4.779
54704.000			-23.895			-4.779
54804.000			-23.894			-4.779
54904.000			-23.893			-4.779
55004.000			-23.894			-4.779
55105.000			-23.893			-4.779
55204.000			-23.892			-4.778
55304.000			-23.891			-4.778
55405.000			-23.890			-4.778
55503.000			-23.890			-4.778
55604.000			-23.890			-4.778
55705.000			-23.889			-4.778
55804.000			-23.888			-4.778
55904.000			-23.887			-4.777
56005.000			-23.886			-4.777
56104.000			-23.885			-4.777
56203.000			-23.884			-4.777
56305.000			-23.883			-4.777
56404.000			-23.882			-4.776
56504.000			-23.883			-4.777
56605.000			-23.881			-4.776
56704.000			-23.881			-4.776
56804.000			-23.881			-4.776
56903.000			-23.880			-4.776
57004.000			-23.879			-4.776
57105.000			-23.878			-4.776
57204.000			-23.878			-4.776
57304.000			-23.877			-4.775
57405.000			-23.876			-4.775
57504.000			-23.875			-4.775
57603.000			-23.874			-4.775
57705.000			-23.873			-4.775
57804.000			-23.873			-4.775
57904.000			-23.872			-4.774
58005.000			-23.872			-4.774
58104.000			-23.871			-4.774
58204.000			-23.870			-4.774
58304.000			-23.870			-4.774
58404.000			-23.869			-4.774
58504.000			-23.868			-4.774
58605.000			-23.868			-4.774
58704.000			-23.867			-4.773
58804.000			-23.865			-4.773
58905.000			-23.866			-4.773
59003.000			-23.865			-4.773
59104.000			-23.864			-4.773
59205.000			-23.863			-4.773
59304.000			-23.863			-4.773
59404.000			-23.862			-4.772
59505.000			-23.861			-4.772
59604.000			-23.860			-4.772
59703.000			-23.860			-4.772
59805.000			-23.860			-4.772
59904.000			-23.857			-4.771
60004.000			-23.857			-4.771
60105.000			-23.857			-4.771
60204.000			-23.857			-4.771
60305.000			-23.856			-4.771
60403.000			-23.855			-4.771
60504.000			-23.854			-4.771
60605.000			-23.854			-4.771
60704.000			-23.854			-4.771
60804.000			-23.853			-4.771
60905.000			-23.852			-4.770
61004.000			-23.852			-4.770
61103.000			-23.852			-4.770
61205.000			-23.852			-4.770
61304.000			-23.850			-4.770
61404.000			-23.848			-4.770
61505.000			-23.848			-4.770
61604.000			-23.848			-4.770
61704.000			-23.846			-4.769
61804.000			-23.846			-4.769
61904.000			-23.844			-4.769
62004.000			-23.844			-4.769
62105.000			-23.844			-4.769
62204.000			-23.843			-4.769
62303.000			-23.843			-4.769
62405.000			-23.841			-4.768
62504.000			-23.841			-4.768
62604.000			-23.840			-4.768
62705.000			-23.839			-4.768
62804.000			-23.838			-4.768
62904.000			-23.838			-4.768
63004.000			-23.837			-4.767
63104.000			-23.837			-4.767
63203.000			-23.837			-4.767
63305.000			-23.835			-4.767
63404.000			-23.835			-4.767
63505.000			-23.835			-4.767
63604.000			-23.834			-4.767
63704.000			-23.834			-4.767
63805.000			-23.832			-4.766
63903.000			-23.832			-4.766
64004.000			-23.830			-4.766
64105.000			-23.829			-4.766
64204.000			-23.830			-4.766
64304.000			-23.829			-4.766
64404.000			-23.829			-4.766
64504.000			-23.828			-4.766
64603.000			-23.828			-4.766
64705.000			-23.827			-4.765
64804.000			-23.826			-4.765
64904.000			-23.825			-4.765
65005.000			-23.825			-4.765
65104.000			-23.825			-4.765
65204.000			-23.824			-4.765
65304.000			-23.823			-4.765
65404.000			-23.822			-4.764
65504.000			-23.822			-4.764
65605.000			-23.822			-4.764
65704.000			-23.821			-4.764
65803.000			-23.820			-4.764
65905.000			-23.820			-4.764
66004.000			-23.819			-4.764
66104.000			-23.818			-4.764
66205.000			-23.818			-4.764
66304.000			-23.817			-4.763
66404.000			-23.816			-4.763
66504.000			-23.815			-4.763
66604.000			-23.814			-4.763
66704.000			-23.814			-4.763
66804.000			-23.813			-4.763
66904.000			-23.814			-4.763
67005.000			-23.814			-4.763
67104.000			-23.813			-4.763
67204.000			-23.812			-4.762
67305.000			-23.811			-4.762
67403.000			-23.811			-4.762
67504.000			-23.809			-4.762
67605.000			-23.808			-4.762
67704.000			-23.807			-4.761
67804.000			-23.808			-4.762
67905.000			-23.808			-4.762
68004.000			-23.807			-4.761
68103.000			-23.806			-4.761
68205.000			-23.805			-4.761
68304.000			-23.803			-4.761
68404.000			-23.802			-4.760
68505.000			-23.803			-4.761
68604.000			-23.803			-4.761
68704.000			-23.802			-4.760
