# Acquired on 25/01/2024 15:27:02 
# SPIDER: Creep_6mm_GRPCNT1454A-3
# CREEP MEASUREMENT

# time [ms]		force [N]		stiffness [N/mm]
0.000			-25.830			-4.305
103.000			-26.266			-4.378
204.000			-26.202			-4.367
305.000			-25.970			-4.328
404.000			-25.789			-4.298
504.000			-25.648			-4.275
604.000			-25.425			-4.237
704.000			-25.335			-4.223
804.000			-25.255			-4.209
904.000			-25.181			-4.197
1004.000			-25.113			-4.186
1104.000			-25.053			-4.175
1204.000			-24.997			-4.166
1304.000			-24.894			-4.149
1405.000			-24.848			-4.141
1504.000			-24.806			-4.134
1604.000			-24.765			-4.127
1705.000			-24.724			-4.121
1803.000			-24.686			-4.114
1904.000			-24.651			-4.109
2005.000			-24.586			-4.098
2104.000			-24.555			-4.093
2204.000			-24.525			-4.087
2304.000			-24.496			-4.083
2404.000			-24.469			-4.078
2504.000			-24.444			-4.074
2605.000			-24.419			-4.070
2704.000			-24.394			-4.066
2804.000			-24.348			-4.058
2905.000			-24.326			-4.054
3003.000			-24.303			-4.050
3104.000			-24.281			-4.047
3205.000			-24.261			-4.043
3304.000			-24.241			-4.040
3404.000			-24.222			-4.037
3504.000			-24.185			-4.031
3604.000			-24.167			-4.028
3704.000			-24.150			-4.025
3805.000			-24.133			-4.022
3904.000			-24.116			-4.019
4004.000			-24.100			-4.017
4105.000			-24.084			-4.014
4203.000			-24.054			-4.009
4305.000			-24.039			-4.006
4404.000			-24.024			-4.004
4504.000			-24.009			-4.001
4605.000			-23.996			-3.999
4704.000			-23.982			-3.997
4804.000			-23.968			-3.995
4904.000			-23.942			-3.990
5004.000			-23.931			-3.988
5104.000			-23.919			-3.986
5205.000			-23.905			-3.984
5304.000			-23.894			-3.982
5403.000			-23.882			-3.980
5505.000			-23.871			-3.978
5604.000			-23.859			-3.977
5704.000			-23.837			-3.973
5805.000			-23.826			-3.971
5904.000			-23.815			-3.969
6004.000			-23.805			-3.967
6104.000			-23.794			-3.966
6204.000			-23.784			-3.964
6304.000			-23.775			-3.962
6405.000			-23.755			-3.959
6504.000			-23.745			-3.957
6604.000			-23.735			-3.956
6705.000			-23.726			-3.954
6803.000			-23.716			-3.953
6904.000			-23.707			-3.951
7005.000			-23.698			-3.950
7104.000			-23.681			-3.947
7204.000			-23.672			-3.945
7304.000			-23.664			-3.944
7404.000			-23.655			-3.943
7504.000			-23.647			-3.941
7604.000			-23.639			-3.940
7704.000			-23.630			-3.938
7805.000			-23.614			-3.936
7904.000			-23.605			-3.934
8003.000			-23.598			-3.933
8105.000			-23.590			-3.932
8204.000			-23.582			-3.930
8304.000			-23.574			-3.929
8405.000			-23.567			-3.928
8504.000			-23.559			-3.926
8604.000			-23.546			-3.924
8704.000			-23.538			-3.923
8804.000			-23.532			-3.922
8904.000			-23.525			-3.921
9005.000			-23.517			-3.920
9104.000			-23.510			-3.918
9203.000			-23.504			-3.917
9305.000			-23.491			-3.915
9404.000			-23.485			-3.914
9504.000			-23.478			-3.913
9605.000			-23.470			-3.912
9704.000			-23.463			-3.911
9804.000			-23.457			-3.910
9904.000			-23.452			-3.909
10004.000			-23.439			-3.907
10104.000			-23.433			-3.906
10205.000			-23.427			-3.905
10304.000			-23.421			-3.904
10404.000			-23.415			-3.902
10505.000			-23.409			-3.901
10603.000			-23.403			-3.901
10705.000			-23.397			-3.900
10804.000			-23.386			-3.898
10904.000			-23.380			-3.897
11005.000			-23.375			-3.896
11104.000			-23.369			-3.895
11204.000			-23.365			-3.894
11304.000			-23.360			-3.893
11404.000			-23.354			-3.892
11504.000			-23.343			-3.890
11605.000			-23.338			-3.890
11704.000			-23.333			-3.889
11803.000			-23.327			-3.888
11905.000			-23.322			-3.887
12004.000			-23.318			-3.886
12104.000			-23.312			-3.885
12205.000			-23.301			-3.884
12304.000			-23.297			-3.883
12404.000			-23.291			-3.882
12504.000			-23.287			-3.881
12604.000			-23.282			-3.880
12704.000			-23.277			-3.880
12805.000			-23.272			-3.879
12904.000			-23.263			-3.877
13004.000			-23.258			-3.876
13105.000			-23.253			-3.875
13203.000			-23.248			-3.875
13304.000			-23.244			-3.874
13405.000			-23.239			-3.873
13504.000			-23.235			-3.872
13604.000			-23.230			-3.872
13703.000			-23.222			-3.870
13804.000			-23.217			-3.870
13905.000			-23.213			-3.869
14004.000			-23.208			-3.868
14104.000			-23.203			-3.867
14205.000			-23.200			-3.867
14304.000			-23.195			-3.866
14403.000			-23.187			-3.864
14505.000			-23.183			-3.864
14604.000			-23.178			-3.863
14704.000			-23.174			-3.862
14805.000			-23.170			-3.862
14904.000			-23.166			-3.861
15004.000			-23.163			-3.861
15104.000			-23.155			-3.859
15204.000			-23.150			-3.858
15304.000			-23.146			-3.858
15405.000			-23.142			-3.857
15504.000			-23.139			-3.856
15604.000			-23.134			-3.856
15705.000			-23.130			-3.855
15803.000			-23.127			-3.854
15904.000			-23.120			-3.853
16005.000			-23.116			-3.853
16104.000			-23.113			-3.852
16204.000			-23.109			-3.851
16304.000			-23.104			-3.851
16404.000			-23.100			-3.850
16504.000			-23.097			-3.849
16605.000			-23.089			-3.848
16704.000			-23.086			-3.848
16804.000			-23.083			-3.847
16905.000			-23.080			-3.847
17003.000			-23.075			-3.846
17105.000			-23.072			-3.845
17204.000			-23.068			-3.845
17304.000			-23.061			-3.843
17405.000			-23.057			-3.843
17504.000			-23.054			-3.842
17604.000			-23.051			-3.842
17704.000			-23.047			-3.841
17804.000			-23.044			-3.841
17904.000			-23.041			-3.840
18005.000			-23.033			-3.839
18104.000			-23.030			-3.838
18203.000			-23.027			-3.838
18305.000			-23.024			-3.837
18404.000			-23.021			-3.837
18504.000			-23.018			-3.836
18605.000			-23.016			-3.836
18704.000			-23.012			-3.835
18804.000			-23.005			-3.834
18904.000			-23.002			-3.834
19004.000			-22.999			-3.833
19104.000			-22.996			-3.833
19205.000			-22.992			-3.832
19304.000			-22.989			-3.832
19404.000			-22.986			-3.831
19505.000			-22.980			-3.830
19603.000			-22.978			-3.830
19704.000			-22.975			-3.829
19805.000			-22.972			-3.829
19904.000			-22.968			-3.828
20004.000			-22.965			-3.827
20104.000			-22.962			-3.827
20204.000			-22.956			-3.826
20304.000			-22.952			-3.825
20404.000			-22.950			-3.825
20504.000			-22.948			-3.825
20605.000			-22.944			-3.824
20704.000			-22.941			-3.823
20804.000			-22.938			-3.823
20905.000			-22.932			-3.822
21003.000			-22.928			-3.821
21104.000			-22.926			-3.821
21205.000			-22.924			-3.821
21304.000			-22.920			-3.820
21404.000			-22.918			-3.820
21505.000			-22.916			-3.819
21604.000			-22.912			-3.819
21703.000			-22.906			-3.818
21805.000			-22.904			-3.817
21904.000			-22.901			-3.817
22004.000			-22.899			-3.817
22105.000			-22.896			-3.816
22204.000			-22.892			-3.815
22304.000			-22.890			-3.815
22404.000			-22.884			-3.814
22504.000			-22.882			-3.814
22604.000			-22.879			-3.813
22705.000			-22.877			-3.813
22804.000			-22.874			-3.812
22903.000			-22.872			-3.812
23005.000			-22.869			-3.812
23104.000			-22.864			-3.811
23204.000			-22.861			-3.810
23305.000			-22.859			-3.810
23404.000			-22.856			-3.809
23505.000			-22.853			-3.809
23603.000			-22.851			-3.808
23704.000			-22.848			-3.808
23805.000			-22.843			-3.807
23904.000			-22.841			-3.807
24004.000			-22.838			-3.806
24105.000			-22.836			-3.806
24204.000			-22.834			-3.806
24303.000			-22.831			-3.805
24405.000			-22.829			-3.805
24504.000			-22.827			-3.805
24604.000			-22.821			-3.804
24705.000			-22.819			-3.803
24804.000			-22.816			-3.803
24904.000			-22.813			-3.802
25004.000			-22.810			-3.802
25104.000			-22.809			-3.801
25204.000			-22.807			-3.801
25305.000			-22.801			-3.800
25404.000			-22.799			-3.800
25504.000			-22.797			-3.799
25605.000			-22.795			-3.799
25703.000			-22.793			-3.799
25804.000			-22.790			-3.798
25905.000			-22.787			-3.798
26004.000			-22.783			-3.797
26104.000			-22.781			-3.797
26205.000			-22.779			-3.797
26304.000			-22.777			-3.796
26403.000			-22.775			-3.796
26505.000			-22.773			-3.795
26604.000			-22.769			-3.795
26705.000			-22.766			-3.794
26804.000			-22.764			-3.794
26904.000			-22.761			-3.793
27005.000			-22.759			-3.793
27103.000			-22.757			-3.793
27204.000			-22.754			-3.792
27305.000			-22.752			-3.792
27404.000			-22.749			-3.792
27504.000			-22.747			-3.791
27604.000			-22.745			-3.791
27704.000			-22.743			-3.790
27803.000			-22.740			-3.790
27905.000			-22.738			-3.790
28004.000			-22.736			-3.789
28104.000			-22.733			-3.789
28205.000			-22.730			-3.788
28303.000			-22.728			-3.788
28404.000			-22.725			-3.787
28505.000			-22.723			-3.787
28604.000			-22.722			-3.787
28704.000			-22.720			-3.787
28805.000			-22.716			-3.786
28904.000			-22.712			-3.785
29003.000			-22.711			-3.785
29105.000			-22.708			-3.785
29204.000			-22.707			-3.785
29304.000			-22.706			-3.784
29405.000			-22.704			-3.784
29504.000			-22.701			-3.783
29604.000			-22.696			-3.783
29703.000			-22.694			-3.782
29804.000			-22.693			-3.782
29905.000			-22.691			-3.782
30004.000			-22.690			-3.782
30104.000			-22.688			-3.781
30205.000			-22.685			-3.781
30304.000			-22.683			-3.780
30403.000			-22.679			-3.780
30505.000			-22.677			-3.780
30604.000			-22.675			-3.779
30704.000			-22.672			-3.779
30805.000			-22.670			-3.778
30904.000			-22.669			-3.778
31004.000			-22.667			-3.778
31104.000			-22.663			-3.777
31204.000			-22.661			-3.777
31304.000			-22.660			-3.777
31405.000			-22.658			-3.776
31504.000			-22.657			-3.776
31604.000			-22.655			-3.776
31705.000			-22.652			-3.775
31803.000			-22.649			-3.775
31904.000			-22.647			-3.775
32005.000			-22.645			-3.774
32104.000			-22.643			-3.774
32204.000			-22.641			-3.774
32304.000			-22.639			-3.773
32404.000			-22.638			-3.773
32503.000			-22.634			-3.772
32605.000			-22.633			-3.772
32704.000			-22.631			-3.772
32804.000			-22.629			-3.771
32905.000			-22.627			-3.771
33003.000			-22.624			-3.771
33105.000			-22.623			-3.770
33204.000			-22.621			-3.770
33304.000			-22.618			-3.770
33405.000			-22.617			-3.769
33504.000			-22.615			-3.769
33604.000			-22.613			-3.769
33704.000			-22.610			-3.768
33804.000			-22.609			-3.768
33904.000			-22.607			-3.768
34005.000			-22.604			-3.767
34104.000			-22.602			-3.767
34204.000			-22.600			-3.767
34305.000			-22.598			-3.766
34403.000			-22.596			-3.766
34504.000			-22.595			-3.766
34605.000			-22.594			-3.766
34704.000			-22.590			-3.765
34804.000			-22.588			-3.765
34905.000			-22.587			-3.764
35004.000			-22.585			-3.764
35103.000			-22.583			-3.764
35205.000			-22.581			-3.764
35304.000			-22.579			-3.763
35404.000			-22.577			-3.763
35505.000			-22.576			-3.763
35604.000			-22.574			-3.762
35704.000			-22.572			-3.762
35804.000			-22.571			-3.762
35904.000			-22.569			-3.761
36004.000			-22.566			-3.761
36104.000			-22.565			-3.761
36204.000			-22.562			-3.760
36305.000			-22.560			-3.760
36404.000			-22.559			-3.760
36503.000			-22.558			-3.760
36605.000			-22.556			-3.759
36704.000			-22.554			-3.759
36804.000			-22.552			-3.759
36905.000			-22.548			-3.758
37003.000			-22.547			-3.758
37104.000			-22.545			-3.757
37205.000			-22.544			-3.757
37304.000			-22.543			-3.757
37404.000			-22.541			-3.757
37505.000			-22.539			-3.756
37604.000			-22.537			-3.756
37703.000			-22.534			-3.756
37805.000			-22.531			-3.755
37904.000			-22.530			-3.755
38004.000			-22.529			-3.755
38105.000			-22.528			-3.755
38204.000			-22.528			-3.755
38304.000			-22.524			-3.754
38404.000			-22.522			-3.754
38504.000			-22.520			-3.753
38604.000			-22.518			-3.753
38705.000			-22.517			-3.753
38804.000			-22.516			-3.753
38904.000			-22.515			-3.753
39005.000			-22.513			-3.752
39103.000			-22.511			-3.752
39204.000			-22.509			-3.751
39305.000			-22.507			-3.751
39404.000			-22.505			-3.751
39505.000			-22.503			-3.751
39604.000			-22.502			-3.750
39704.000			-22.501			-3.750
39804.000			-22.497			-3.749
39904.000			-22.496			-3.749
40004.000			-22.495			-3.749
40105.000			-22.493			-3.749
40204.000			-22.492			-3.749
40304.000			-22.490			-3.748
40405.000			-22.489			-3.748
40503.000			-22.486			-3.748
40604.000			-22.485			-3.747
40705.000			-22.483			-3.747
40804.000			-22.481			-3.747
40904.000			-22.479			-3.746
41004.000			-22.478			-3.746
41104.000			-22.477			-3.746
41204.000			-22.475			-3.746
41305.000			-22.473			-3.746
41404.000			-22.472			-3.745
41504.000			-22.471			-3.745
41605.000			-22.469			-3.745
41703.000			-22.468			-3.745
41804.000			-22.466			-3.744
41905.000			-22.466			-3.744
42004.000			-22.462			-3.744
42104.000			-22.461			-3.743
42205.000			-22.460			-3.743
42304.000			-22.459			-3.743
42403.000			-22.456			-3.743
42505.000			-22.454			-3.742
42604.000			-22.454			-3.742
42705.000			-22.451			-3.742
42804.000			-22.449			-3.742
42904.000			-22.448			-3.741
43005.000			-22.447			-3.741
43103.000			-22.446			-3.741
43204.000			-22.444			-3.741
43305.000			-22.443			-3.740
43404.000			-22.441			-3.740
43504.000			-22.440			-3.740
43604.000			-22.438			-3.740
43704.000			-22.435			-3.739
43804.000			-22.434			-3.739
43905.000			-22.434			-3.739
44004.000			-22.433			-3.739
44104.000			-22.429			-3.738
44205.000			-22.428			-3.738
44303.000			-22.427			-3.738
44404.000			-22.425			-3.738
44505.000			-22.423			-3.737
44604.000			-22.422			-3.737
44704.000			-22.421			-3.737
44805.000			-22.421			-3.737
44904.000			-22.417			-3.736
45003.000			-22.416			-3.736
45105.000			-22.416			-3.736
45204.000			-22.414			-3.736
45304.000			-22.412			-3.735
45405.000			-22.410			-3.735
45504.000			-22.409			-3.735
45604.000			-22.406			-3.734
45703.000			-22.407			-3.734
45804.000			-22.405			-3.734
45905.000			-22.403			-3.734
46004.000			-22.401			-3.734
46104.000			-22.400			-3.733
46204.000			-22.399			-3.733
46304.000			-22.398			-3.733
46404.000			-22.396			-3.733
46505.000			-22.394			-3.732
46604.000			-22.392			-3.732
46704.000			-22.392			-3.732
46805.000			-22.391			-3.732
46904.000			-22.389			-3.731
47004.000			-22.387			-3.731
47104.000			-22.386			-3.731
47204.000			-22.384			-3.731
47304.000			-22.383			-3.730
47405.000			-22.382			-3.730
47504.000			-22.381			-3.730
47603.000			-22.380			-3.730
47705.000			-22.379			-3.730
47804.000			-22.376			-3.729
47904.000			-22.375			-3.729
48005.000			-22.373			-3.729
48104.000			-22.372			-3.729
48204.000			-22.371			-3.728
48304.000			-22.370			-3.728
48404.000			-22.369			-3.728
48503.000			-22.366			-3.728
48605.000			-22.365			-3.727
48704.000			-22.363			-3.727
48804.000			-22.363			-3.727
48905.000			-22.362			-3.727
49003.000			-22.360			-3.727
49105.000			-22.359			-3.727
49204.000			-22.357			-3.726
49304.000			-22.356			-3.726
49405.000			-22.355			-3.726
49504.000			-22.352			-3.725
49604.000			-22.352			-3.725
49704.000			-22.350			-3.725
49804.000			-22.349			-3.725
49904.000			-22.346			-3.724
50005.000			-22.346			-3.724
50104.000			-22.345			-3.724
50204.000			-22.343			-3.724
50305.000			-22.342			-3.724
50403.000			-22.341			-3.724
50504.000			-22.339			-3.723
50605.000			-22.338			-3.723
50704.000			-22.336			-3.723
50804.000			-22.335			-3.723
50904.000			-22.335			-3.722
51004.000			-22.333			-3.722
51104.000			-22.333			-3.722
51205.000			-22.331			-3.722
51304.000			-22.330			-3.722
51404.000			-22.327			-3.721
51505.000			-22.326			-3.721
51603.000			-22.324			-3.721
51704.000			-22.324			-3.721
51805.000			-22.324			-3.721
51904.000			-22.323			-3.720
52004.000			-22.321			-3.720
52104.000			-22.318			-3.720
52204.000			-22.317			-3.720
52304.000			-22.316			-3.719
52404.000			-22.315			-3.719
52504.000			-22.315			-3.719
52605.000			-22.313			-3.719
52704.000			-22.312			-3.719
52803.000			-22.311			-3.718
52905.000			-22.308			-3.718
53004.000			-22.307			-3.718
53104.000			-22.307			-3.718
53205.000			-22.306			-3.718
53304.000			-22.304			-3.717
53404.000			-22.304			-3.717
53504.000			-22.303			-3.717
53604.000			-22.300			-3.717
53704.000			-22.299			-3.717
53805.000			-22.298			-3.716
53904.000			-22.297			-3.716
54003.000			-22.296			-3.716
54105.000			-22.295			-3.716
54204.000			-22.294			-3.716
54304.000			-22.291			-3.715
54405.000			-22.290			-3.715
54504.000			-22.289			-3.715
54604.000			-22.288			-3.715
54704.000			-22.287			-3.715
54804.000			-22.286			-3.714
54904.000			-22.285			-3.714
55005.000			-22.283			-3.714
55104.000			-22.282			-3.714
55204.000			-22.281			-3.714
55305.000			-22.280			-3.713
55403.000			-22.279			-3.713
55505.000			-22.277			-3.713
55604.000			-22.275			-3.712
55704.000			-22.273			-3.712
55805.000			-22.273			-3.712
55904.000			-22.272			-3.712
56004.000			-22.271			-3.712
56104.000			-22.270			-3.712
56204.000			-22.269			-3.711
56304.000			-22.269			-3.711
56405.000			-22.268			-3.711
56504.000			-22.265			-3.711
56604.000			-22.264			-3.711
56705.000			-22.263			-3.710
56803.000			-22.261			-3.710
56904.000			-22.260			-3.710
57005.000			-22.259			-3.710
57104.000			-22.257			-3.710
57204.000			-22.257			-3.709
57305.000			-22.257			-3.709
57404.000			-22.256			-3.709
57503.000			-22.254			-3.709
57605.000			-22.253			-3.709
57704.000			-22.252			-3.709
57804.000			-22.251			-3.708
57905.000			-22.248			-3.708
58004.000			-22.246			-3.708
58104.000			-22.246			-3.708
58204.000			-22.245			-3.708
58304.000			-22.244			-3.707
58404.000			-22.243			-3.707
58504.000			-22.243			-3.707
58604.000			-22.240			-3.707
58704.000			-22.240			-3.707
58804.000			-22.238			-3.706
58904.000			-22.237			-3.706
59005.000			-22.237			-3.706
59104.000			-22.235			-3.706
59204.000			-22.235			-3.706
59305.000			-22.232			-3.705
59403.000			-22.232			-3.705
59504.000			-22.232			-3.705
59605.000			-22.230			-3.705
59704.000			-22.229			-3.705
59804.000			-22.228			-3.705
59905.000			-22.226			-3.704
60004.000			-22.226			-3.704
60103.000			-22.224			-3.704
60205.000			-22.223			-3.704
60304.000			-22.222			-3.704
60404.000			-22.222			-3.704
60505.000			-22.221			-3.703
60604.000			-22.220			-3.703
60704.000			-22.219			-3.703
60804.000			-22.216			-3.703
60904.000			-22.215			-3.703
61004.000			-22.215			-3.702
61105.000			-22.213			-3.702
61204.000			-22.212			-3.702
61303.000			-22.212			-3.702
61405.000			-22.211			-3.702
61504.000			-22.209			-3.701
61604.000			-22.208			-3.701
61705.000			-22.207			-3.701
61804.000			-22.206			-3.701
61905.000			-22.205			-3.701
62003.000			-22.204			-3.701
62104.000			-22.203			-3.700
62205.000			-22.202			-3.700
62304.000			-22.200			-3.700
62404.000			-22.199			-3.700
62505.000			-22.199			-3.700
62604.000			-22.198			-3.700
62703.000			-22.197			-3.700
62805.000			-22.196			-3.699
62904.000			-22.195			-3.699
63004.000			-22.193			-3.699
63105.000			-22.192			-3.699
63203.000			-22.191			-3.699
63304.000			-22.191			-3.698
63405.000			-22.190			-3.698
63504.000			-22.189			-3.698
63604.000			-22.188			-3.698
63705.000			-22.185			-3.697
63804.000			-22.185			-3.697
63903.000			-22.184			-3.697
64005.000			-22.183			-3.697
64104.000			-22.182			-3.697
64204.000			-22.182			-3.697
64305.000			-22.180			-3.697
64404.000			-22.178			-3.696
64504.000			-22.177			-3.696
64604.000			-22.177			-3.696
64704.000			-22.177			-3.696
64804.000			-22.176			-3.696
64904.000			-22.174			-3.696
65004.000			-22.173			-3.696
65105.000			-22.173			-3.695
65204.000			-22.171			-3.695
65303.000			-22.170			-3.695
65405.000			-22.170			-3.695
65504.000			-22.169			-3.695
65604.000			-22.169			-3.695
65705.000			-22.167			-3.695
65804.000			-22.165			-3.694
65904.000			-22.164			-3.694
66004.000			-22.163			-3.694
66104.000			-22.162			-3.694
66204.000			-22.161			-3.694
66305.000			-22.160			-3.693
66404.000			-22.158			-3.693
66503.000			-22.157			-3.693
66605.000			-22.157			-3.693
66704.000			-22.157			-3.693
66804.000			-22.155			-3.692
66905.000			-22.153			-3.692
67004.000			-22.153			-3.692
67104.000			-22.151			-3.692
67204.000			-22.151			-3.692
67304.000			-22.150			-3.692
67404.000			-22.149			-3.692
67505.000			-22.148			-3.691
67604.000			-22.147			-3.691
67704.000			-22.146			-3.691
67805.000			-22.145			-3.691
67903.000			-22.145			-3.691
68004.000			-22.144			-3.691
68105.000			-22.143			-3.690
68204.000			-22.142			-3.690
68305.000			-22.141			-3.690
68404.000			-22.140			-3.690
68504.000			-22.139			-3.690
68604.000			-22.137			-3.690
68704.000			-22.136			-3.689
68804.000			-22.136			-3.689
