# Acquired on 27/11/2023 13:09:13 
# SPIDER: ProvaCreep-7mm180s
# CREEP MEASUREMENT

# time [ms]		force [N]		stiffness [N/mm]
1.000			3175422.000			453631.714
101.000			3251059.000			464437.000
200.000			3270127.000			467161.000
301.000			3260010.000			465715.714
400.000			3246210.000			463744.286
500.000			3235692.000			462241.714
601.000			3226791.000			460970.143
701.000			3219174.000			459882.000
801.000			3206041.000			458005.857
901.000			3200427.000			457203.857
1000.000			3195697.000			456528.143
1100.000			3191050.000			455864.286
1201.000			3186802.000			455257.429
1300.000			3182798.000			454685.429
1402.000			3179389.000			454198.429
1501.000			3172454.000			453207.714
1600.000			3169318.000			452759.714
1701.000			3166233.000			452319.000
1800.000			3163364.000			451909.143
1900.000			3160964.000			451566.286
2001.000			3158346.000			451192.286
2100.000			3156040.000			450862.857
2201.000			3151381.000			450197.286
2301.000			3149070.000			449867.143
2400.000			3147209.000			449601.286
2500.000			3145249.000			449321.286
2601.000			3143230.000			449032.857
2700.000			3141167.000			448738.143
2800.000			3139340.000			448477.143
2902.000			3137675.000			448239.286
3000.000			3134113.000			447730.429
3100.000			3132707.000			447529.571
3201.000			3131056.000			447293.714
3300.000			3129479.000			447068.429
3400.000			3128003.000			446857.571
3501.000			3126529.000			446647.000
3601.000			3125058.000			446436.857
3700.000			3122245.000			446035.000
3801.000			3120929.000			445847.000
3900.000			3119617.000			445659.571
4000.000			3118209.000			445458.429
4101.000			3117091.000			445298.714
4200.000			3116019.000			445145.571
4301.000			3114538.000			444934.000
4401.000			3112492.000			444641.714
4500.000			3111438.000			444491.143
4601.000			3110243.000			444320.429
4700.000			3109757.000			444251.000
4800.000			3108577.000			444082.429
4901.000			3107291.000			443898.714
5001.000			3106289.000			443755.571
5100.000			3105461.000			443637.286
5201.000			3103224.000			443317.714
5300.000			3102136.000			443162.286
5400.000			3101187.000			443026.714
5501.000			3100504.000			442929.143
5601.000			3099384.000			442769.143
5701.000			3098180.000			442597.143
5801.000			3097096.000			442442.286
5900.000			3095381.000			442197.286
6000.000			3094457.000			442065.286
6101.000			3093393.000			441913.286
6200.000			3092382.000			441768.857
6300.000			3091606.000			441658.000
6402.000			3090535.000			441505.000
6500.000			3089902.000			441414.571
6600.000			3088821.000			441260.143
6701.000			3087227.000			441032.429
6800.000			3086204.000			440886.286
6900.000			3085552.000			440793.143
7001.000			3084824.000			440689.143
7101.000			3084052.000			440578.857
7200.000			3083111.000			440444.429
7301.000			3082395.000			440342.143
7400.000			3080866.000			440123.714
7500.000			3080100.000			440014.286
7601.000			3079527.000			439932.429
7700.000			3078625.000			439803.571
7802.000			3077819.000			439688.429
7901.000			3077227.000			439603.857
8000.000			3076449.000			439492.714
8101.000			3075003.000			439286.143
8200.000			3074446.000			439206.571
8300.000			3073676.000			439096.571
8401.000			3072807.000			438972.429
8501.000			3072230.000			438890.000
8601.000			3071546.000			438792.286
8701.000			3071090.000			438727.143
8800.000			3070542.000			438648.857
8900.000			3069252.000			438464.571
9001.000			3068782.000			438397.429
9100.000			3068334.000			438333.429
9201.000			3067785.000			438255.000
9302.000			3067693.000			438241.857
9400.000			3069343.000			438477.571
9500.000			3069964.000			438566.286
9601.000			3068482.000			438354.571
9700.000			3067772.000			438253.143
9800.000			3067254.000			438179.143
9901.000			3066781.000			438111.571
10001.000			3066124.000			438017.714
10100.000			3065506.000			437929.429
10201.000			3065204.000			437886.286
10300.000			3064113.000			437730.429
10400.000			3063540.000			437648.571
10501.000			3063140.000			437591.429
10600.000			3062516.000			437502.286
10701.000			3061617.000			437373.857
10801.000			3061171.000			437310.143
10900.000			3060796.000			437256.571
11001.000			3060190.000			437170.000
11100.000			3059219.000			437031.286
11200.000			3059080.000			437011.429
11301.000			3058902.000			436986.000
11401.000			3058145.000			436877.857
11500.000			3057414.000			436773.429
11601.000			3056867.000			436695.286
11700.000			3056282.000			436611.714
11800.000			3055191.000			436455.857
11901.000			3055100.000			436442.857
12000.000			3054653.000			436379.000
12101.000			3053660.000			436237.143
12202.000			3053607.000			436229.571
12300.000			3053412.000			436201.714
12400.000			3052693.000			436099.000
12501.000			3051941.000			435991.571
12600.000			3051446.000			435920.857
12700.000			3050912.000			435844.571
12802.000			3050631.000			435804.429
12901.000			3050756.000			435822.286
13000.000			3050203.000			435743.286
13101.000			3049750.000			435678.571
13200.000			3049587.000			435655.286
13300.000			3048300.000			435471.429
13401.000			3047691.000			435384.429
13500.000			3047338.000			435334.000
13601.000			3046756.000			435250.857
13701.000			3046323.000			435189.000
13800.000			3046325.000			435189.286
13900.000			3046439.000			435205.571
14001.000			3045496.000			435070.857
14100.000			3045309.000			435044.143
14201.000			3045587.000			435083.857
14301.000			3045657.000			435093.857
14401.000			3045017.000			435002.429
14501.000			3044904.000			434986.286
14600.000			3045912.000			435130.286
14700.000			3046095.000			435156.429
14801.000			3045257.000			435036.714
14900.000			3045081.000			435011.571
15001.000			3044754.000			434964.857
15102.000			3044386.000			434912.286
15200.000			3044000.000			434857.143
15300.000			3043722.000			434817.429
15401.000			3043287.000			434755.286
15500.000			3042808.000			434686.857
15600.000			3042225.000			434603.571
15701.000			3041795.000			434542.143
15801.000			3041491.000			434498.714
15900.000			3041287.000			434469.571
16001.000			3041041.000			434434.429
16100.000			3041025.000			434432.143
16200.000			3040060.000			434294.286
16301.000			3039672.000			434238.857
16400.000			3039221.000			434174.429
16501.000			3038922.000			434131.714
16601.000			3038657.000			434093.857
16700.000			3038319.000			434045.571
16800.000			3038204.000			434029.143
16901.000			3037937.000			433991.000
17000.000			3037393.000			433913.286
17100.000			3037062.000			433866.000
17202.000			3036653.000			433807.571
17301.000			3036211.000			433744.429
17401.000			3035886.000			433698.000
17500.000			3035716.000			433673.714
17600.000			3035290.000			433612.857
17701.000			3034721.000			433531.571
17800.000			3034409.000			433487.000
17900.000			3033997.000			433428.143
18002.000			3033987.000			433426.714
18100.000			3033921.000			433417.286
18200.000			3033608.000			433372.571
18301.000			3033230.000			433318.571
18400.000			3032520.000			433217.143
18500.000			3032309.000			433187.000
18601.000			3032094.000			433156.286
18701.000			3031662.000			433094.571
18800.000			3031332.000			433047.429
18901.000			3031203.000			433029.000
19000.000			3030610.000			432944.286
19100.000			3030377.000			432911.000
19201.000			3029944.000			432849.143
19300.000			3030027.000			432861.000
19401.000			3029762.000			432823.143
19502.000			3029422.000			432774.571
19600.000			3029153.000			432736.143
19700.000			3028861.000			432694.429
19801.000			3028886.000			432698.000
19900.000			3028231.000			432604.429
20000.000			3027951.000			432564.429
20102.000			3027618.000			432516.857
20201.000			3027640.000			432520.000
20300.000			3027372.000			432481.714
20401.000			3027195.000			432456.429
20500.000			3026885.000			432412.143
20601.000			3026411.000			432344.429
20700.000			3026323.000			432331.857
20800.000			3026053.000			432293.286
20902.000			3025743.000			432249.000
21000.000			3025680.000			432240.000
21100.000			3025591.000			432227.286
21201.000			3025536.000			432219.429
21300.000			3025377.000			432196.714
21400.000			3024907.000			432129.571
21501.000			3024208.000			432029.714
21601.000			3023893.000			431984.714
21700.000			3023567.000			431938.143
21801.000			3023381.000			431911.571
21900.000			3023253.000			431893.286
22000.000			3023137.000			431876.714
22101.000			3022837.000			431833.857
22200.000			3022670.000			431810.000
22301.000			3022102.000			431728.857
22401.000			3021765.000			431680.714
22500.000			3021758.000			431679.714
22600.000			3021608.000			431658.286
22701.000			3021410.000			431630.000
22800.000			3020942.000			431563.143
22900.000			3020645.000			431520.714
23002.000			3020354.000			431479.143
23101.000			3020153.000			431450.429
23200.000			3019871.000			431410.143
23301.000			3019484.000			431354.857
23400.000			3019345.000			431335.000
23500.000			3019357.000			431336.714
23601.000			3019016.000			431288.000
23701.000			3018761.000			431251.571
23802.000			3018539.000			431219.857
23900.000			3018410.000			431201.429
24000.000			3018125.000			431160.714
24101.000			3017804.000			431114.857
24200.000			3017571.000			431081.571
24300.000			3017209.000			431029.857
24402.000			3017020.000			431002.857
24501.000			3016601.000			430943.000
24600.000			3016481.000			430925.857
24701.000			3016484.000			430926.286
24800.000			3016030.000			430861.429
24900.000			3015816.000			430830.857
25001.000			3015717.000			430816.714
25100.000			3015062.000			430723.143
25201.000			3014907.000			430701.000
25301.000			3014912.000			430701.714
25400.000			3014697.000			430671.000
25500.000			3014471.000			430638.714
25601.000			3014359.000			430622.714
25700.000			3014200.000			430600.000
25800.000			3013496.000			430499.429
25902.000			3013376.000			430482.286
26000.000			3013264.000			430466.286
26100.000			3012972.000			430424.571
26201.000			3012854.000			430407.714
26300.000			3012713.000			430387.571
26400.000			3012528.000			430361.143
26501.000			3011977.000			430282.429
26601.000			3011665.000			430237.857
26701.000			3011577.000			430225.286
26801.000			3011574.000			430224.857
26900.000			3011452.000			430207.429
27001.000			3011109.000			430158.429
27100.000			3010933.000			430133.286
27200.000			3010725.000			430103.571
27302.000			3010292.000			430041.714
27401.000			3010231.000			430033.000
27500.000			3010004.000			430000.571
27601.000			3009739.000			429962.714
27700.000			3009618.000			429945.429
27800.000			3009336.000			429905.143
27901.000			3009085.000			429869.286
28000.000			3008622.000			429803.143
28101.000			3008612.000			429801.714
28201.000			3008347.000			429763.857
28300.000			3008226.000			429746.571
28400.000			3008013.000			429716.143
28501.000			3007663.000			429666.143
28600.000			3007410.000			429630.000
28700.000			3007160.000			429594.286
28802.000			3007177.000			429596.714
28900.000			3006898.000			429556.857
29000.000			3006743.000			429534.714
29101.000			3006395.000			429485.000
29200.000			3006332.000			429476.000
29300.000			3006320.000			429474.286
29401.000			3006084.000			429440.571
29501.000			3005782.000			429397.429
29601.000			3005518.000			429359.714
29701.000			3005124.000			429303.429
29800.000			3005064.000			429294.857
29900.000			3005004.000			429286.286
30001.000			3004882.000			429268.857
30100.000			3004645.000			429235.000
30202.000			3004167.000			429166.714
30301.000			3003947.000			429135.286
30400.000			3003926.000			429132.286
30501.000			3003692.000			429098.857
30600.000			3003618.000			429088.286
30700.000			3003267.000			429038.143
30801.000			3003041.000			429005.857
30901.000			3002988.000			428998.286
31001.000			3002638.000			428948.286
31101.000			3002461.000			428923.000
31200.000			3002332.000			428904.571
31300.000			3001956.000			428850.857
31401.000			3001835.000			428833.571
31500.000			3001801.000			428828.714
31600.000			3001512.000			428787.429
31702.000			3000939.000			428705.571
31800.000			3000841.000			428691.571
31900.000			3000745.000			428677.857
32001.000			3000567.000			428652.429
32100.000			3000145.000			428592.143
32200.000			3000048.000			428578.286
32301.000			2999958.000			428565.429
32401.000			2999673.000			428524.714
32500.000			2999525.000			428503.571
32601.000			2999500.000			428500.000
32700.000			2999262.000			428466.000
32800.000			2999118.000			428445.429
32901.000			2999143.000			428449.000
33000.000			2999043.000			428434.714
33101.000			2999056.000			428436.571
33202.000			2998417.000			428345.286
33300.000			2998272.000			428324.571
33401.000			2998123.000			428303.286
33500.000			2998052.000			428293.143
33600.000			2997787.000			428255.286
33701.000			2997626.000			428232.286
33800.000			2997483.000			428211.857
33901.000			2997253.000			428179.000
34002.000			2997071.000			428153.000
34100.000			2996824.000			428117.714
34200.000			2996528.000			428075.429
34301.000			2996520.000			428074.286
34400.000			2996391.000			428055.857
34500.000			2996172.000			428024.571
34601.000			2995829.000			427975.571
34701.000			2995773.000			427967.571
34801.000			2995697.000			427956.714
34901.000			2995419.000			427917.000
35000.000			2995386.000			427912.286
35100.000			2995300.000			427900.000
35201.000			2995157.000			427879.571
35300.000			2994981.000			427854.429
35400.000			2994553.000			427793.286
35502.000			2994626.000			427803.714
35600.000			2994204.000			427743.429
35700.000			2994026.000			427718.000
35801.000			2993936.000			427705.143
35900.000			2993910.000			427701.429
36000.000			2993744.000			427677.714
36101.000			2993105.000			427586.429
36201.000			2992969.000			427567.000
36301.000			2992882.000			427554.571
36401.000			2992604.000			427514.857
36500.000			2992430.000			427490.000
36601.000			2992275.000			427467.857
36700.000			2992164.000			427452.000
36800.000			2992020.000			427431.429
36901.000			2991934.000			427419.143
37001.000			2992044.000			427434.857
37101.000			2991844.000			427406.286
37201.000			2991767.000			427395.286
37300.000			2991797.000			427399.571
37400.000			2991451.000			427350.143
37501.000			2991143.000			427306.143
37600.000			2990861.000			427265.857
37700.000			2990727.000			427246.714
37802.000			2990563.000			427223.286
37900.000			2990494.000			427213.429
38000.000			2990484.000			427212.000
38101.000			2990429.000			427204.143
38200.000			2990157.000			427165.286
38300.000			2989811.000			427115.857
38401.000			2989873.000			427124.714
38501.000			2989588.000			427084.000
38601.000			2989272.000			427038.857
38701.000			2988986.000			426998.000
38800.000			2988989.000			426998.429
38900.000			2988923.000			426989.000
39001.000			2988811.000			426973.000
39100.000			2988432.000			426918.857
39200.000			2988173.000			426881.857
39302.000			2988219.000			426888.429
39401.000			2988011.000			426858.714
39500.000			2987940.000			426848.571
39601.000			2987544.000			426792.000
39700.000			2987618.000			426802.571
39801.000			2987470.000			426781.429
39900.000			2987197.000			426742.429
40000.000			2987168.000			426738.286
40102.000			2987123.000			426731.857
40201.000			2987071.000			426724.429
40300.000			2986836.000			426690.857
40401.000			2986554.000			426650.571
40500.000			2986387.000			426626.714
40600.000			2986240.000			426605.714
40701.000			2986004.000			426572.000
40800.000			2986038.000			426576.857
40901.000			2985647.000			426521.000
41002.000			2985692.000			426527.429
41100.000			2985552.000			426507.429
41200.000			2985517.000			426502.429
41301.000			2985081.000			426440.143
41400.000			2985092.000			426441.714
41500.000			2985038.000			426434.000
41601.000			2984808.000			426401.143
41701.000			2984555.000			426365.000
41800.000			2984319.000			426331.286
41901.000			2984332.000			426333.143
42000.000			2984025.000			426289.286
42100.000			2983995.000			426285.000
42201.000			2984015.000			426287.857
42300.000			2983957.000			426279.571
42401.000			2983948.000			426278.286
42502.000			2983564.000			426223.429
42600.000			2983512.000			426216.000
42700.000			2983114.000			426159.143
42801.000			2983040.000			426148.571
42900.000			2982884.000			426126.286
43001.000			2982745.000			426106.429
43100.000			2982478.000			426068.286
43201.000			2982465.000			426066.429
43301.000			2982472.000			426067.429
43400.000			2982354.000			426050.571
43500.000			2982116.000			426016.571
43601.000			2982045.000			426006.429
43700.000			2981756.000			425965.143
43800.000			2981700.000			425957.143
43901.000			2981653.000			425950.429
44001.000			2981376.000			425910.857
44100.000			2981198.000			425885.429
44201.000			2981093.000			425870.429
44300.000			2980969.000			425852.714
44400.000			2980945.000			425849.286
44501.000			2980819.000			425831.286
44600.000			2980628.000			425804.000
44701.000			2980494.000			425784.857
44802.000			2980300.000			425757.143
44900.000			2980108.000			425729.714
45000.000			2979961.000			425708.714
45101.000			2980153.000			425736.143
45200.000			2980104.000			425729.143
45300.000			2979990.000			425712.857
45401.000			2979921.000			425703.000
45501.000			2979530.000			425647.143
45600.000			2979436.000			425633.714
45701.000			2979277.000			425611.000
45800.000			2979195.000			425599.286
45900.000			2978966.000			425566.571
46001.000			2978850.000			425550.000
46100.000			2978475.000			425496.429
46201.000			2978552.000			425507.429
46301.000			2978516.000			425502.286
46400.000			2978244.000			425463.429
46501.000			2978072.000			425438.857
46600.000			2977821.000			425403.000
46700.000			2977814.000			425402.000
46801.000			2977749.000			425392.714
46900.000			2977759.000			425394.143
47000.000			2977822.000			425403.143
47102.000			2977392.000			425341.714
47200.000			2977379.000			425339.857
47300.000			2977355.000			425336.429
47401.000			2977255.000			425322.143
47500.000			2977061.000			425294.429
47600.000			2976645.000			425235.000
47701.000			2976487.000			425212.429
47801.000			2976354.000			425193.429
47901.000			2976397.000			425199.571
48001.000			2976309.000			425187.000
48100.000			2976153.000			425164.714
48200.000			2976013.000			425144.714
48301.000			2975806.000			425115.143
48400.000			2975769.000			425109.857
48500.000			2975721.000			425103.000
48602.000			2975627.000			425089.571
48701.000			2975401.000			425057.286
48800.000			2975032.000			425004.571
48901.000			2975058.000			425008.286
49000.000			2975253.000			425036.143
49100.000			2975023.000			425003.286
49201.000			2974790.000			424970.000
49300.000			2974860.000			424980.000
49402.000			2974545.000			424935.000
49501.000			2974130.000			424875.714
49600.000			2974117.000			424873.857
49701.000			2974039.000			424862.714
49800.000			2973981.000			424854.429
49900.000			2973929.000			424847.000
50001.000			2973938.000			424848.286
50100.000			2973936.000			424848.000
50201.000			2973571.000			424795.857
50302.000			2973147.000			424735.286
50400.000			2973154.000			424736.286
50500.000			2973289.000			424755.571
50601.000			2973069.000			424724.143
50700.000			2972723.000			424674.714
50800.000			2972790.000			424684.286
50901.000			2972661.000			424665.857
51001.000			2972658.000			424665.429
51100.000			2972498.000			424642.571
51201.000			2972373.000			424624.714
51300.000			2972282.000			424611.714
51400.000			2971941.000			424563.000
51501.000			2971867.000			424552.429
51600.000			2971974.000			424567.714
51701.000			2971772.000			424538.857
51802.000			2971895.000			424556.429
51900.000			2971891.000			424555.857
52000.000			2971523.000			424503.286
52101.000			2971090.000			424441.429
52200.000			2971151.000			424450.143
52300.000			2971025.000			424432.143
52401.000			2971109.000			424444.143
52501.000			2970815.000			424402.143
52601.000			2970724.000			424389.143
52700.000			2970674.000			424382.000
52800.000			2970595.000			424370.714
52901.000			2970613.000			424373.286
53000.000			2970412.000			424344.571
53100.000			2970067.000			424295.286
53202.000			2969955.000			424279.286
53301.000			2969985.000			424283.571
53400.000			2970001.000			424285.857
53501.000			2970008.000			424286.857
53600.000			2970136.000			424305.143
53700.000			2969868.000			424266.857
53801.000			2969421.000			424203.000
53900.000			2969261.000			424180.143
