# Acquired on 10/01/2024 15:13:18 
# SPIDER: Creep_7mm_07714532B-1
# CREEP MEASUREMENT

# time [ms]		force [N]		stiffness [N/mm]
1.000			-29.698			-4.243
101.000			-31.422			-4.489
200.000			-32.123			-4.589
300.000			-32.162			-4.595
401.000			-31.828			-4.547
500.000			-31.704			-4.529
601.000			-31.597			-4.514
702.000			-31.506			-4.501
800.000			-31.425			-4.489
900.000			-31.351			-4.479
1001.000			-31.285			-4.469
1100.000			-31.169			-4.453
1200.000			-31.117			-4.445
1301.000			-31.068			-4.438
1401.000			-31.025			-4.432
1501.000			-30.981			-4.426
1601.000			-30.940			-4.420
1700.000			-30.902			-4.415
1800.000			-30.832			-4.405
1901.000			-30.800			-4.400
2000.000			-30.768			-4.395
2101.000			-30.738			-4.391
2202.000			-30.710			-4.387
2300.000			-30.682			-4.383
2400.000			-30.654			-4.379
2501.000			-30.629			-4.376
2600.000			-30.581			-4.369
2701.000			-30.558			-4.365
2800.000			-30.535			-4.362
2901.000			-30.513			-4.359
3002.000			-30.493			-4.356
3100.000			-30.471			-4.353
3200.000			-30.452			-4.350
3301.000			-30.414			-4.345
3400.000			-30.395			-4.342
3500.000			-30.377			-4.340
3602.000			-30.360			-4.337
3701.000			-30.344			-4.335
3800.000			-30.327			-4.332
3901.000			-30.310			-4.330
4000.000			-30.279			-4.326
4100.000			-30.263			-4.323
4201.000			-30.249			-4.321
4300.000			-30.235			-4.319
4401.000			-30.220			-4.317
4502.000			-30.207			-4.315
4600.000			-30.194			-4.313
4700.000			-30.181			-4.312
4801.000			-30.154			-4.308
4900.000			-30.142			-4.306
5000.000			-30.129			-4.304
5102.000			-30.117			-4.302
5201.000			-30.105			-4.301
5300.000			-30.093			-4.299
5401.000			-30.082			-4.297
5500.000			-30.059			-4.294
5600.000			-30.049			-4.293
5701.000			-30.037			-4.291
5800.000			-30.026			-4.289
5902.000			-30.017			-4.288
6001.000			-30.006			-4.287
6100.000			-29.996			-4.285
6201.000			-29.977			-4.282
6300.000			-29.967			-4.281
6400.000			-29.958			-4.280
6501.000			-29.948			-4.278
6600.000			-29.938			-4.277
6701.000			-29.929			-4.276
6802.000			-29.919			-4.274
6900.000			-29.910			-4.273
7000.000			-29.893			-4.270
7101.000			-29.884			-4.269
7200.000			-29.875			-4.268
7300.000			-29.866			-4.267
7401.000			-29.858			-4.265
7501.000			-29.851			-4.264
7601.000			-29.843			-4.263
7701.000			-29.826			-4.261
7800.000			-29.818			-4.260
7900.000			-29.810			-4.259
8001.000			-29.803			-4.258
8100.000			-29.795			-4.256
8200.000			-29.787			-4.255
8302.000			-29.780			-4.254
8401.000			-29.766			-4.252
8500.000			-29.759			-4.251
8601.000			-29.753			-4.250
8700.000			-29.745			-4.249
8800.000			-29.738			-4.248
8901.000			-29.731			-4.247
9000.000			-29.724			-4.246
9102.000			-29.710			-4.244
9201.000			-29.704			-4.243
9300.000			-29.697			-4.242
9401.000			-29.690			-4.241
9500.000			-29.684			-4.241
9600.000			-29.677			-4.240
9701.000			-29.671			-4.239
9800.000			-29.665			-4.238
9901.000			-29.653			-4.236
10002.000			-29.647			-4.235
10100.000			-29.640			-4.234
10200.000			-29.635			-4.234
10301.000			-29.629			-4.233
10400.000			-29.623			-4.232
10500.000			-29.618			-4.231
10601.000			-29.606			-4.229
10701.000			-29.599			-4.228
10801.000			-29.593			-4.228
10901.000			-29.588			-4.227
11000.000			-29.583			-4.226
11100.000			-29.578			-4.225
11201.000			-29.572			-4.225
11300.000			-29.566			-4.224
11400.000			-29.556			-4.222
11502.000			-29.551			-4.222
11601.000			-29.545			-4.221
11700.000			-29.539			-4.220
11801.000			-29.533			-4.219
11900.000			-29.529			-4.218
12000.000			-29.524			-4.218
12101.000			-29.515			-4.216
12200.000			-29.510			-4.216
12302.000			-29.505			-4.215
12401.000			-29.499			-4.214
12500.000			-29.494			-4.213
12601.000			-29.490			-4.213
12700.000			-29.486			-4.212
12800.000			-29.476			-4.211
12901.000			-29.471			-4.210
13000.000			-29.467			-4.210
13101.000			-29.462			-4.209
13202.000			-29.457			-4.208
13300.000			-29.452			-4.207
13400.000			-29.448			-4.207
13501.000			-29.439			-4.206
13600.000			-29.435			-4.205
13700.000			-29.431			-4.204
13801.000			-29.426			-4.204
13901.000			-29.422			-4.203
14001.000			-29.417			-4.202
14101.000			-29.413			-4.202
14200.000			-29.409			-4.201
14300.000			-29.400			-4.200
14401.000			-29.396			-4.199
14500.000			-29.392			-4.199
14600.000			-29.388			-4.198
14702.000			-29.384			-4.198
14801.000			-29.379			-4.197
14900.000			-29.375			-4.196
15001.000			-29.368			-4.195
15100.000			-29.364			-4.195
15200.000			-29.359			-4.194
15301.000			-29.355			-4.194
15400.000			-29.352			-4.193
15501.000			-29.348			-4.193
15601.000			-29.343			-4.192
15701.000			-29.337			-4.191
15801.000			-29.334			-4.191
15900.000			-29.330			-4.190
16000.000			-29.326			-4.189
16101.000			-29.321			-4.189
16200.000			-29.317			-4.188
16300.000			-29.313			-4.188
16402.000			-29.310			-4.187
16501.000			-29.303			-4.186
16600.000			-29.300			-4.186
16701.000			-29.296			-4.185
16800.000			-29.292			-4.185
16900.000			-29.288			-4.184
17001.000			-29.285			-4.184
17100.000			-29.281			-4.183
17201.000			-29.274			-4.182
17302.000			-29.270			-4.181
17400.000			-29.267			-4.181
17500.000			-29.263			-4.180
17601.000			-29.259			-4.180
17700.000			-29.257			-4.180
17800.000			-29.253			-4.179
17901.000			-29.248			-4.178
18001.000			-29.244			-4.178
18101.000			-29.240			-4.177
18201.000			-29.237			-4.177
18300.000			-29.234			-4.176
18400.000			-29.231			-4.176
18501.000			-29.227			-4.175
18600.000			-29.224			-4.175
18701.000			-29.218			-4.174
18801.000			-29.215			-4.174
18901.000			-29.212			-4.173
19001.000			-29.209			-4.173
19100.000			-29.206			-4.172
19200.000			-29.203			-4.172
19301.000			-29.199			-4.171
19400.000			-29.193			-4.170
19500.000			-29.189			-4.170
19602.000			-29.186			-4.169
19701.000			-29.184			-4.169
19800.000			-29.181			-4.169
19901.000			-29.178			-4.168
20000.000			-29.175			-4.168
20100.000			-29.170			-4.167
20201.000			-29.167			-4.167
20300.000			-29.163			-4.166
20401.000			-29.161			-4.166
20502.000			-29.158			-4.165
20600.000			-29.155			-4.165
20700.000			-29.152			-4.165
20801.000			-29.149			-4.164
20900.000			-29.143			-4.163
21000.000			-29.141			-4.163
21101.000			-29.138			-4.163
21201.000			-29.135			-4.162
21301.000			-29.133			-4.162
21401.000			-29.130			-4.161
21500.000			-29.128			-4.161
21600.000			-29.122			-4.160
21701.000			-29.118			-4.160
21800.000			-29.116			-4.159
21901.000			-29.113			-4.159
22001.000			-29.110			-4.159
22101.000			-29.108			-4.158
22201.000			-29.104			-4.158
22300.000			-29.099			-4.157
22400.000			-29.096			-4.157
22501.000			-29.094			-4.156
22600.000			-29.091			-4.156
22700.000			-29.089			-4.156
22802.000			-29.086			-4.155
22901.000			-29.083			-4.155
23000.000			-29.081			-4.154
23101.000			-29.076			-4.154
23200.000			-29.073			-4.153
23300.000			-29.070			-4.153
23401.000			-29.068			-4.153
23500.000			-29.066			-4.152
23601.000			-29.063			-4.152
23702.000			-29.059			-4.151
23800.000			-29.055			-4.151
23900.000			-29.052			-4.150
24001.000			-29.050			-4.150
24100.000			-29.047			-4.150
24200.000			-29.045			-4.149
24301.000			-29.042			-4.149
24401.000			-29.040			-4.149
24501.000			-29.036			-4.148
24601.000			-29.034			-4.148
24700.000			-29.030			-4.147
24800.000			-29.028			-4.147
24901.000			-29.026			-4.147
25000.000			-29.023			-4.146
25101.000			-29.021			-4.146
25201.000			-29.016			-4.145
25301.000			-29.014			-4.145
25401.000			-29.012			-4.145
25500.000			-29.009			-4.144
25600.000			-29.006			-4.144
25701.000			-29.004			-4.143
25800.000			-29.002			-4.143
25900.000			-29.000			-4.143
26002.000			-28.995			-4.142
26101.000			-28.993			-4.142
26200.000			-28.990			-4.141
26301.000			-28.988			-4.141
26400.000			-28.986			-4.141
26500.000			-28.984			-4.141
26601.000			-28.982			-4.140
26700.000			-28.977			-4.140
26801.000			-28.976			-4.139
26902.000			-28.975			-4.139
27001.000			-28.972			-4.139
27100.000			-28.969			-4.138
27201.000			-28.967			-4.138
27300.000			-28.964			-4.138
27400.000			-28.960			-4.137
27501.000			-28.957			-4.137
27600.000			-28.955			-4.136
27701.000			-28.953			-4.136
27802.000			-28.950			-4.136
27900.000			-28.949			-4.136
28000.000			-28.946			-4.135
28101.000			-28.944			-4.135
28200.000			-28.940			-4.134
28301.000			-28.938			-4.134
28400.000			-28.936			-4.134
28501.000			-28.933			-4.133
28602.000			-28.931			-4.133
28701.000			-28.928			-4.133
28800.000			-28.927			-4.132
28901.000			-28.923			-4.132
29000.000			-28.921			-4.132
29100.000			-28.920			-4.131
29201.000			-28.918			-4.131
29300.000			-28.915			-4.131
29401.000			-28.913			-4.130
29502.000			-28.911			-4.130
29600.000			-28.906			-4.129
29700.000			-28.904			-4.129
29801.000			-28.903			-4.129
29900.000			-28.900			-4.129
30000.000			-28.898			-4.128
30101.000			-28.897			-4.128
30201.000			-28.894			-4.128
30301.000			-28.892			-4.127
30401.000			-28.888			-4.127
30500.000			-28.886			-4.127
30600.000			-28.883			-4.126
30701.000			-28.883			-4.126
30800.000			-28.881			-4.126
30900.000			-28.880			-4.126
31002.000			-28.878			-4.125
31101.000			-28.873			-4.125
31200.000			-28.870			-4.124
31301.000			-28.869			-4.124
31400.000			-28.867			-4.124
31501.000			-28.864			-4.123
31600.000			-28.862			-4.123
31700.000			-28.860			-4.123
31801.000			-28.856			-4.122
31901.000			-28.854			-4.122
32001.000			-28.853			-4.122
32101.000			-28.851			-4.122
32200.000			-28.849			-4.121
32300.000			-28.846			-4.121
32401.000			-28.845			-4.121
32500.000			-28.844			-4.121
32600.000			-28.839			-4.120
32702.000			-28.837			-4.120
32801.000			-28.836			-4.119
32900.000			-28.834			-4.119
33001.000			-28.833			-4.119
33100.000			-28.831			-4.119
33200.000			-28.829			-4.118
33301.000			-28.826			-4.118
33400.000			-28.824			-4.118
33501.000			-28.822			-4.117
33602.000			-28.820			-4.117
33700.000			-28.818			-4.117
33800.000			-28.817			-4.117
33901.000			-28.815			-4.116
34000.000			-28.811			-4.116
34100.000			-28.809			-4.116
34201.000			-28.807			-4.115
34301.000			-28.806			-4.115
34401.000			-28.804			-4.115
34501.000			-28.804			-4.115
34600.000			-28.801			-4.114
34701.000			-28.797			-4.114
34800.000			-28.796			-4.114
34900.000			-28.794			-4.113
35001.000			-28.792			-4.113
35101.000			-28.791			-4.113
35201.000			-28.791			-4.113
35301.000			-28.788			-4.113
35400.000			-28.787			-4.112
35500.000			-28.783			-4.112
35601.000			-28.781			-4.112
35700.000			-28.780			-4.111
35800.000			-28.778			-4.111
35902.000			-28.777			-4.111
36001.000			-28.776			-4.111
36101.000			-28.774			-4.111
36201.000			-28.771			-4.110
36300.000			-28.769			-4.110
36400.000			-28.767			-4.110
36501.000			-28.765			-4.109
36600.000			-28.763			-4.109
36700.000			-28.763			-4.109
36802.000			-28.762			-4.109
36901.000			-28.757			-4.108
37000.000			-28.756			-4.108
37101.000			-28.754			-4.108
37200.000			-28.752			-4.107
37300.000			-28.752			-4.107
37401.000			-28.750			-4.107
37500.000			-28.749			-4.107
37601.000			-28.748			-4.107
37702.000			-28.745			-4.106
37800.000			-28.743			-4.106
37901.000			-28.740			-4.106
38000.000			-28.738			-4.105
38100.000			-28.737			-4.105
38201.000			-28.735			-4.105
38300.000			-28.733			-4.105
38401.000			-28.730			-4.104
38502.000			-28.728			-4.104
38601.000			-28.727			-4.104
38700.000			-28.725			-4.104
38801.000			-28.724			-4.103
38900.000			-28.723			-4.103
39000.000			-28.721			-4.103
39101.000			-28.718			-4.103
39201.000			-28.716			-4.102
39301.000			-28.715			-4.102
39402.000			-28.714			-4.102
39500.000			-28.712			-4.102
39600.000			-28.711			-4.102
39701.000			-28.709			-4.101
39800.000			-28.707			-4.101
39900.000			-28.704			-4.101
40001.000			-28.702			-4.100
40101.000			-28.702			-4.100
40201.000			-28.700			-4.100
40301.000			-28.697			-4.100
40400.000			-28.697			-4.100
40500.000			-28.696			-4.099
40601.000			-28.691			-4.099
40700.000			-28.690			-4.099
40800.000			-28.689			-4.098
40902.000			-28.688			-4.098
41001.000			-28.686			-4.098
41101.000			-28.684			-4.098
41200.000			-28.682			-4.097
41300.000			-28.680			-4.097
41401.000			-28.678			-4.097
41500.000			-28.677			-4.097
41600.000			-28.675			-4.096
41702.000			-28.674			-4.096
41801.000			-28.672			-4.096
41900.000			-28.671			-4.096
42001.000			-28.669			-4.096
42100.000			-28.667			-4.095
42200.000			-28.665			-4.095
42301.000			-28.663			-4.095
42400.000			-28.662			-4.095
42501.000			-28.660			-4.094
42602.000			-28.660			-4.094
42701.000			-28.658			-4.094
42800.000			-28.654			-4.093
42901.000			-28.654			-4.093
43000.000			-28.653			-4.093
43100.000			-28.650			-4.093
43201.000			-28.650			-4.093
43300.000			-28.649			-4.093
43401.000			-28.646			-4.092
43502.000			-28.644			-4.092
43600.000			-28.643			-4.092
43700.000			-28.642			-4.092
43801.000			-28.640			-4.091
43900.000			-28.639			-4.091
44000.000			-28.637			-4.091
44101.000			-28.636			-4.091
44201.000			-28.633			-4.090
44302.000			-28.632			-4.090
44400.000			-28.630			-4.090
44500.000			-28.629			-4.090
44601.000			-28.628			-4.090
44700.000			-28.627			-4.090
44800.000			-28.625			-4.089
44901.000			-28.624			-4.089
45001.000			-28.622			-4.089
45101.000			-28.620			-4.089
45201.000			-28.620			-4.089
45300.000			-28.619			-4.088
45400.000			-28.616			-4.088
45501.000			-28.616			-4.088
45600.000			-28.614			-4.088
45700.000			-28.612			-4.087
45802.000			-28.611			-4.087
45901.000			-28.610			-4.087
46000.000			-28.608			-4.087
46101.000			-28.607			-4.087
46200.000			-28.607			-4.087
46300.000			-28.605			-4.086
46401.000			-28.602			-4.086
46500.000			-28.601			-4.086
46601.000			-28.599			-4.086
46702.000			-28.598			-4.085
46800.000			-28.597			-4.085
46900.000			-28.596			-4.085
47001.000			-28.594			-4.085
47100.000			-28.592			-4.085
47200.000			-28.591			-4.084
47301.000			-28.590			-4.084
47401.000			-28.590			-4.084
47502.000			-28.588			-4.084
47601.000			-28.586			-4.084
47700.000			-28.584			-4.083
47801.000			-28.583			-4.083
47900.000			-28.581			-4.083
48000.000			-28.580			-4.083
48101.000			-28.579			-4.083
48200.000			-28.578			-4.083
48301.000			-28.578			-4.083
48402.000			-28.576			-4.082
48500.000			-28.574			-4.082
48600.000			-28.571			-4.082
48701.000			-28.569			-4.081
48800.000			-28.568			-4.081
48900.000			-28.567			-4.081
49001.000			-28.566			-4.081
49101.000			-28.565			-4.081
49201.000			-28.564			-4.081
49302.000			-28.561			-4.080
49400.000			-28.559			-4.080
49500.000			-28.559			-4.080
49601.000			-28.558			-4.080
49700.000			-28.557			-4.080
49800.000			-28.557			-4.080
49901.000			-28.556			-4.079
50001.000			-28.554			-4.079
50101.000			-28.551			-4.079
50201.000			-28.550			-4.079
50300.000			-28.549			-4.078
50400.000			-28.548			-4.078
50501.000			-28.546			-4.078
50600.000			-28.546			-4.078
50701.000			-28.545			-4.078
50801.000			-28.542			-4.077
50901.000			-28.540			-4.077
51001.000			-28.540			-4.077
51100.000			-28.538			-4.077
51200.000			-28.536			-4.077
51301.000			-28.536			-4.077
51400.000			-28.535			-4.076
51500.000			-28.532			-4.076
51602.000			-28.531			-4.076
51701.000			-28.530			-4.076
51800.000			-28.529			-4.076
51901.000			-28.527			-4.075
52000.000			-28.526			-4.075
52100.000			-28.525			-4.075
52201.000			-28.524			-4.075
52300.000			-28.522			-4.075
52401.000			-28.520			-4.074
52502.000			-28.519			-4.074
52600.000			-28.518			-4.074
52700.000			-28.517			-4.074
52801.000			-28.515			-4.074
52900.000			-28.515			-4.074
53000.000			-28.512			-4.073
53101.000			-28.510			-4.073
53201.000			-28.509			-4.073
53301.000			-28.509			-4.073
53401.000			-28.508			-4.073
53500.000			-28.506			-4.072
53600.000			-28.504			-4.072
53701.000			-28.502			-4.072
53800.000			-28.501			-4.072
53901.000			-28.501			-4.072
54001.000			-28.499			-4.071
54101.000			-28.498			-4.071
54201.000			-28.497			-4.071
54300.000			-28.496			-4.071
54400.000			-28.494			-4.071
54501.000			-28.494			-4.071
54600.000			-28.492			-4.070
54700.000			-28.490			-4.070
54802.000			-28.488			-4.070
54901.000			-28.488			-4.070
55001.000			-28.487			-4.070
55101.000			-28.486			-4.069
55200.000			-28.484			-4.069
55300.000			-28.483			-4.069
55401.000			-28.482			-4.069
55500.000			-28.480			-4.069
55600.000			-28.479			-4.068
55702.000			-28.479			-4.068
55801.000			-28.477			-4.068
55900.000			-28.475			-4.068
56001.000			-28.474			-4.068
56100.000			-28.473			-4.068
56200.000			-28.472			-4.067
56301.000			-28.471			-4.067
56400.000			-28.469			-4.067
56501.000			-28.468			-4.067
56602.000			-28.466			-4.067
56700.000			-28.464			-4.066
56800.000			-28.464			-4.066
56901.000			-28.463			-4.066
57000.000			-28.462			-4.066
57101.000			-28.460			-4.066
57200.000			-28.460			-4.066
57301.000			-28.458			-4.065
57402.000			-28.457			-4.065
57501.000			-28.456			-4.065
57600.000			-28.455			-4.065
57701.000			-28.453			-4.065
57800.000			-28.452			-4.065
57900.000			-28.451			-4.064
58001.000			-28.449			-4.064
58100.000			-28.448			-4.064
58201.000			-28.447			-4.064
58302.000			-28.446			-4.064
58400.000			-28.445			-4.064
58500.000			-28.444			-4.063
58601.000			-28.444			-4.063
58700.000			-28.443			-4.063
58800.000			-28.440			-4.063
58901.000			-28.439			-4.063
59001.000			-28.438			-4.063
59101.000			-28.438			-4.063
59201.000			-28.437			-4.062
59300.000			-28.435			-4.062
59400.000			-28.434			-4.062
59501.000			-28.433			-4.062
59600.000			-28.431			-4.062
59700.000			-28.431			-4.062
59802.000			-28.430			-4.061
59901.000			-28.429			-4.061
60000.000			-28.428			-4.061
60101.000			-28.427			-4.061
60200.000			-28.427			-4.061
60301.000			-28.424			-4.061
60400.000			-28.422			-4.060
60500.000			-28.421			-4.060
60602.000			-28.421			-4.060
60701.000			-28.420			-4.060
60800.000			-28.419			-4.060
60901.000			-28.418			-4.060
61000.000			-28.415			-4.059
61100.000			-28.414			-4.059
61201.000			-28.414			-4.059
61300.000			-28.412			-4.059
61401.000			-28.411			-4.059
61502.000			-28.410			-4.059
61600.000			-28.410			-4.059
61700.000			-28.407			-4.058
61801.000			-28.406			-4.058
61900.000			-28.405			-4.058
62000.000			-28.405			-4.058
62101.000			-28.403			-4.058
62201.000			-28.403			-4.058
62301.000			-28.402			-4.057
62401.000			-28.401			-4.057
62500.000			-28.399			-4.057
62600.000			-28.399			-4.057
62701.000			-28.397			-4.057
62800.000			-28.397			-4.057
62900.000			-28.396			-4.057
63002.000			-28.395			-4.056
63101.000			-28.394			-4.056
63200.000			-28.393			-4.056
63301.000			-28.393			-4.056
63400.000			-28.391			-4.056
63501.000			-28.391			-4.056
63600.000			-28.390			-4.056
63700.000			-28.389			-4.056
63801.000			-28.388			-4.055
63901.000			-28.387			-4.055
64001.000			-28.385			-4.055
64101.000			-28.384			-4.055
64200.000			-28.383			-4.055
64300.000			-28.382			-4.055
64401.000			-28.382			-4.055
64500.000			-28.381			-4.054
64600.000			-28.379			-4.054
64702.000			-28.379			-4.054
64801.000			-28.377			-4.054
64900.000			-28.377			-4.054
65001.000			-28.375			-4.054
65100.000			-28.375			-4.054
65200.000			-28.374			-4.053
65301.000			-28.372			-4.053
65400.000			-28.370			-4.053
65501.000			-28.370			-4.053
65602.000			-28.370			-4.053
65700.000			-28.368			-4.053
65800.000			-28.366			-4.052
65901.000			-28.365			-4.052
66000.000			-28.364			-4.052
66100.000			-28.363			-4.052
66201.000			-28.362			-4.052
66301.000			-28.361			-4.052
66401.000			-28.359			-4.051
66501.000			-28.358			-4.051
66600.000			-28.358			-4.051
66701.000			-28.357			-4.051
66800.000			-28.356			-4.051
66900.000			-28.354			-4.051
67001.000			-28.353			-4.050
67100.000			-28.351			-4.050
67201.000			-28.350			-4.050
67302.000			-28.350			-4.050
67400.000			-28.349			-4.050
67500.000			-28.348			-4.050
67601.000			-28.347			-4.050
67700.000			-28.346			-4.049
67800.000			-28.345			-4.049
67901.000			-28.345			-4.049
68001.000			-28.344			-4.049
68101.000			-28.342			-4.049
68201.000			-28.341			-4.049
68300.000			-28.339			-4.048
68400.000			-28.339			-4.048
68501.000			-28.337			-4.048
68600.000			-28.336			-4.048
68700.000			-28.335			-4.048
68802.000			-28.336			-4.048
