# Acquired on 25/01/2024 16:03:07 
# SPIDER: Creep_-6mm_GRPCNT1454A-1
# CREEP MEASUREMENT

# time [ms]		force [N]		stiffness [N/mm]
1.000			17.811			-2.969
105.000			18.173			-3.029
203.000			18.149			-3.025
304.000			18.005			-3.001
405.000			17.888			-2.981
504.000			17.793			-2.966
604.000			17.648			-2.941
704.000			17.589			-2.932
804.000			17.535			-2.923
904.000			17.488			-2.915
1005.000			17.444			-2.907
1104.000			17.404			-2.901
1204.000			17.367			-2.895
1305.000			17.301			-2.884
1403.000			17.271			-2.879
1504.000			17.244			-2.874
1605.000			17.218			-2.870
1704.000			17.193			-2.865
1804.000			17.168			-2.861
1904.000			17.145			-2.858
2004.000			17.124			-2.854
2104.000			17.083			-2.847
2205.000			17.064			-2.844
2304.000			17.046			-2.841
2404.000			17.028			-2.838
2505.000			17.012			-2.835
2603.000			16.995			-2.833
2705.000			16.981			-2.830
2804.000			16.950			-2.825
2904.000			16.935			-2.823
3005.000			16.922			-2.820
3104.000			16.910			-2.818
3204.000			16.897			-2.816
3304.000			16.885			-2.814
3404.000			16.873			-2.812
3504.000			16.848			-2.808
3605.000			16.837			-2.806
3704.000			16.826			-2.804
3803.000			16.815			-2.803
3905.000			16.806			-2.801
4004.000			16.795			-2.799
4104.000			16.785			-2.798
4205.000			16.765			-2.794
4304.000			16.756			-2.793
4404.000			16.746			-2.791
4504.000			16.738			-2.790
4604.000			16.730			-2.788
4704.000			16.721			-2.787
4805.000			16.712			-2.785
4904.000			16.704			-2.784
5004.000			16.689			-2.781
5105.000			16.681			-2.780
5203.000			16.673			-2.779
5304.000			16.665			-2.778
5405.000			16.658			-2.776
5504.000			16.652			-2.775
5604.000			16.646			-2.774
5704.000			16.630			-2.772
5804.000			16.624			-2.771
5905.000			16.617			-2.769
6004.000			16.610			-2.768
6104.000			16.603			-2.767
6205.000			16.597			-2.766
6304.000			16.591			-2.765
6403.000			16.578			-2.763
6505.000			16.571			-2.762
6604.000			16.566			-2.761
6704.000			16.561			-2.760
6805.000			16.556			-2.759
6904.000			16.549			-2.758
7004.000			16.544			-2.757
7104.000			16.533			-2.755
7204.000			16.528			-2.755
7304.000			16.523			-2.754
7405.000			16.517			-2.753
7504.000			16.512			-2.752
7604.000			16.507			-2.751
7705.000			16.502			-2.750
7803.000			16.497			-2.750
7904.000			16.487			-2.748
8005.000			16.482			-2.747
8104.000			16.478			-2.746
8204.000			16.473			-2.746
8304.000			16.469			-2.745
8404.000			16.463			-2.744
8504.000			16.459			-2.743
8605.000			16.451			-2.742
8704.000			16.447			-2.741
8804.000			16.442			-2.740
8905.000			16.438			-2.740
9003.000			16.433			-2.739
9105.000			16.429			-2.738
9204.000			16.426			-2.738
9304.000			16.418			-2.736
9405.000			16.413			-2.736
9504.000			16.409			-2.735
9604.000			16.405			-2.734
9704.000			16.400			-2.733
9804.000			16.396			-2.733
9904.000			16.393			-2.732
10005.000			16.385			-2.731
10104.000			16.382			-2.730
10203.000			16.379			-2.730
10305.000			16.376			-2.729
10404.000			16.371			-2.729
10504.000			16.367			-2.728
10605.000			16.364			-2.727
10704.000			16.360			-2.727
10804.000			16.352			-2.725
10904.000			16.350			-2.725
11004.000			16.347			-2.724
11104.000			16.344			-2.724
11205.000			16.341			-2.724
11304.000			16.337			-2.723
11404.000			16.334			-2.722
11505.000			16.328			-2.721
11603.000			16.325			-2.721
11704.000			16.322			-2.720
11805.000			16.319			-2.720
11904.000			16.316			-2.719
12004.000			16.313			-2.719
12103.000			16.310			-2.718
12204.000			16.303			-2.717
12305.000			16.299			-2.717
12404.000			16.296			-2.716
12504.000			16.294			-2.716
12605.000			16.291			-2.715
12704.000			16.289			-2.715
12803.000			16.285			-2.714
12905.000			16.278			-2.713
13004.000			16.277			-2.713
13104.000			16.274			-2.712
13205.000			16.271			-2.712
13304.000			16.267			-2.711
13404.000			16.264			-2.711
13504.000			16.262			-2.710
13604.000			16.259			-2.710
13704.000			16.254			-2.709
13805.000			16.252			-2.709
13904.000			16.249			-2.708
14004.000			16.245			-2.708
14105.000			16.243			-2.707
14203.000			16.240			-2.707
14304.000			16.238			-2.706
14405.000			16.233			-2.705
14504.000			16.230			-2.705
14604.000			16.227			-2.704
14704.000			16.225			-2.704
14804.000			16.223			-2.704
14903.000			16.220			-2.703
15005.000			16.217			-2.703
15104.000			16.212			-2.702
15204.000			16.210			-2.702
15305.000			16.209			-2.701
15403.000			16.205			-2.701
15505.000			16.203			-2.700
15604.000			16.201			-2.700
15704.000			16.197			-2.700
15805.000			16.193			-2.699
15904.000			16.191			-2.699
16004.000			16.189			-2.698
16104.000			16.186			-2.698
16204.000			16.184			-2.697
16304.000			16.182			-2.697
16405.000			16.180			-2.697
16504.000			16.178			-2.696
16604.000			16.173			-2.696
16705.000			16.172			-2.695
16803.000			16.170			-2.695
16904.000			16.168			-2.695
17005.000			16.164			-2.694
17104.000			16.163			-2.694
17204.000			16.161			-2.694
17305.000			16.156			-2.693
17404.000			16.154			-2.692
17503.000			16.153			-2.692
17605.000			16.150			-2.692
17704.000			16.149			-2.691
17804.000			16.146			-2.691
17905.000			16.144			-2.691
18004.000			16.141			-2.690
18104.000			16.137			-2.690
18204.000			16.136			-2.689
18304.000			16.134			-2.689
18404.000			16.132			-2.689
18504.000			16.131			-2.689
18604.000			16.128			-2.688
18703.000			16.124			-2.687
18804.000			16.123			-2.687
18904.000			16.121			-2.687
19005.000			16.118			-2.686
19104.000			16.117			-2.686
19204.000			16.115			-2.686
19305.000			16.112			-2.685
19403.000			16.110			-2.685
19504.000			16.107			-2.685
19605.000			16.106			-2.684
19704.000			16.104			-2.684
19804.000			16.103			-2.684
19905.000			16.100			-2.683
20004.000			16.098			-2.683
20103.000			16.096			-2.683
20205.000			16.092			-2.682
20304.000			16.090			-2.682
20404.000			16.089			-2.682
20505.000			16.087			-2.681
20604.000			16.085			-2.681
20704.000			16.083			-2.680
20804.000			16.082			-2.680
20904.000			16.079			-2.680
21004.000			16.077			-2.680
21105.000			16.076			-2.679
21204.000			16.074			-2.679
21303.000			16.072			-2.679
21405.000			16.071			-2.678
21504.000			16.068			-2.678
21604.000			16.064			-2.677
21705.000			16.063			-2.677
21804.000			16.062			-2.677
21905.000			16.060			-2.677
22003.000			16.058			-2.676
22104.000			16.057			-2.676
22205.000			16.055			-2.676
22304.000			16.053			-2.676
22404.000			16.050			-2.675
22505.000			16.049			-2.675
22604.000			16.047			-2.674
22703.000			16.045			-2.674
22805.000			16.044			-2.674
22904.000			16.042			-2.674
23004.000			16.041			-2.673
23105.000			16.037			-2.673
23204.000			16.035			-2.672
23304.000			16.034			-2.672
23404.000			16.032			-2.672
23504.000			16.031			-2.672
23604.000			16.029			-2.671
23705.000			16.028			-2.671
23804.000			16.025			-2.671
23903.000			16.023			-2.671
24005.000			16.021			-2.670
24104.000			16.020			-2.670
24204.000			16.019			-2.670
24305.000			16.018			-2.670
24404.000			16.017			-2.670
24504.000			16.013			-2.669
24604.000			16.010			-2.668
24704.000			16.010			-2.668
24804.000			16.007			-2.668
24904.000			16.005			-2.668
25004.000			16.006			-2.668
25105.000			16.004			-2.667
25204.000			16.003			-2.667
25303.000			16.000			-2.667
25405.000			15.999			-2.667
25504.000			15.998			-2.666
25604.000			15.995			-2.666
25705.000			15.994			-2.666
25804.000			15.994			-2.666
25904.000			15.992			-2.665
26004.000			15.988			-2.665
26104.000			15.988			-2.665
26204.000			15.985			-2.664
26305.000			15.984			-2.664
26404.000			15.984			-2.664
26504.000			15.983			-2.664
26605.000			15.981			-2.663
26703.000			15.978			-2.663
26804.000			15.977			-2.663
26905.000			15.976			-2.663
27004.000			15.974			-2.662
27104.000			15.973			-2.662
27205.000			15.972			-2.662
27304.000			15.970			-2.662
27403.000			15.967			-2.661
27505.000			15.967			-2.661
27604.000			15.965			-2.661
27704.000			15.963			-2.661
27805.000			15.961			-2.660
27904.000			15.960			-2.660
28004.000			15.960			-2.660
28103.000			15.958			-2.660
28204.000			15.956			-2.659
28305.000			15.954			-2.659
28404.000			15.953			-2.659
28504.000			15.952			-2.659
28605.000			15.951			-2.658
28704.000			15.949			-2.658
28803.000			15.947			-2.658
28905.000			15.945			-2.658
29004.000			15.944			-2.657
29104.000			15.944			-2.657
29205.000			15.942			-2.657
29304.000			15.940			-2.657
29404.000			15.938			-2.656
29504.000			15.939			-2.656
29604.000			15.936			-2.656
29704.000			15.935			-2.656
29805.000			15.934			-2.656
29904.000			15.932			-2.655
30004.000			15.931			-2.655
30105.000			15.930			-2.655
30203.000			15.929			-2.655
30304.000			15.926			-2.654
30405.000			15.925			-2.654
30504.000			15.924			-2.654
30604.000			15.923			-2.654
30704.000			15.921			-2.654
30804.000			15.921			-2.653
30904.000			15.920			-2.653
31005.000			15.918			-2.653
31104.000			15.916			-2.653
31204.000			15.916			-2.653
31305.000			15.915			-2.652
31403.000			15.913			-2.652
31505.000			15.912			-2.652
31604.000			15.910			-2.652
31704.000			15.909			-2.652
31805.000			15.907			-2.651
31904.000			15.905			-2.651
32004.000			15.904			-2.651
32104.000			15.904			-2.651
32204.000			15.902			-2.650
32304.000			15.901			-2.650
32405.000			15.900			-2.650
32504.000			15.899			-2.650
32604.000			15.898			-2.650
32705.000			15.897			-2.650
32803.000			15.896			-2.649
32904.000			15.893			-2.649
33005.000			15.892			-2.649
33104.000			15.892			-2.649
33204.000			15.890			-2.648
33305.000			15.889			-2.648
33404.000			15.887			-2.648
33503.000			15.886			-2.648
33605.000			15.885			-2.648
33704.000			15.885			-2.647
33804.000			15.883			-2.647
33905.000			15.881			-2.647
34004.000			15.880			-2.647
34104.000			15.879			-2.647
34204.000			15.878			-2.646
34304.000			15.877			-2.646
34404.000			15.876			-2.646
34504.000			15.875			-2.646
34604.000			15.874			-2.646
34705.000			15.872			-2.645
34804.000			15.871			-2.645
34903.000			15.870			-2.645
35005.000			15.869			-2.645
35104.000			15.869			-2.645
35204.000			15.868			-2.645
35305.000			15.866			-2.644
35404.000			15.863			-2.644
35504.000			15.863			-2.644
35604.000			15.862			-2.644
35704.000			15.862			-2.644
35804.000			15.860			-2.643
35905.000			15.858			-2.643
36004.000			15.858			-2.643
36104.000			15.856			-2.643
36205.000			15.856			-2.643
36303.000			15.854			-2.642
36404.000			15.853			-2.642
36505.000			15.852			-2.642
36604.000			15.852			-2.642
36704.000			15.849			-2.642
36804.000			15.849			-2.641
36904.000			15.848			-2.641
37003.000			15.848			-2.641
37105.000			15.847			-2.641
37204.000			15.844			-2.641
37304.000			15.843			-2.641
37405.000			15.843			-2.640
37503.000			15.840			-2.640
37604.000			15.840			-2.640
37705.000			15.839			-2.640
37804.000			15.838			-2.640
37905.000			15.837			-2.639
38004.000			15.835			-2.639
38104.000			15.835			-2.639
38204.000			15.834			-2.639
38304.000			15.833			-2.639
38404.000			15.832			-2.639
38505.000			15.830			-2.638
38604.000			15.829			-2.638
38704.000			15.828			-2.638
38805.000			15.827			-2.638
38903.000			15.827			-2.638
39004.000			15.823			-2.637
39105.000			15.824			-2.637
39204.000			15.824			-2.637
39304.000			15.822			-2.637
39405.000			15.821			-2.637
39504.000			15.820			-2.637
39603.000			15.820			-2.637
39705.000			15.818			-2.636
39804.000			15.816			-2.636
39904.000			15.816			-2.636
40005.000			15.815			-2.636
40104.000			15.814			-2.636
40204.000			15.813			-2.636
40304.000			15.812			-2.635
40404.000			15.811			-2.635
40504.000			15.809			-2.635
40605.000			15.808			-2.635
40704.000			15.807			-2.634
40804.000			15.806			-2.634
40905.000			15.805			-2.634
41003.000			15.804			-2.634
41105.000			15.804			-2.634
41204.000			15.803			-2.634
41304.000			15.802			-2.634
41405.000			15.800			-2.633
41503.000			15.800			-2.633
41604.000			15.799			-2.633
41705.000			15.799			-2.633
41804.000			15.799			-2.633
41904.000			15.796			-2.633
42005.000			15.796			-2.633
42104.000			15.795			-2.632
42203.000			15.794			-2.632
42305.000			15.792			-2.632
42404.000			15.792			-2.632
42504.000			15.790			-2.632
42605.000			15.788			-2.631
42704.000			15.788			-2.631
42804.000			15.788			-2.631
42904.000			15.787			-2.631
43004.000			15.787			-2.631
43103.000			15.785			-2.631
43205.000			15.784			-2.631
43304.000			15.783			-2.631
43404.000			15.781			-2.630
43505.000			15.781			-2.630
43603.000			15.781			-2.630
43704.000			15.779			-2.630
43805.000			15.779			-2.630
43904.000			15.779			-2.630
44004.000			15.777			-2.630
44104.000			15.775			-2.629
44204.000			15.774			-2.629
44303.000			15.774			-2.629
44404.000			15.773			-2.629
44503.000			15.771			-2.629
44605.000			15.771			-2.629
44704.000			15.771			-2.628
44804.000			15.768			-2.628
44905.000			15.768			-2.628
45004.000			15.767			-2.628
45104.000			15.767			-2.628
45204.000			15.766			-2.628
45304.000			15.765			-2.627
45404.000			15.764			-2.627
45505.000			15.763			-2.627
45604.000			15.763			-2.627
45703.000			15.762			-2.627
45805.000			15.760			-2.627
45904.000			15.759			-2.627
46004.000			15.758			-2.626
46105.000			15.758			-2.626
46204.000			15.756			-2.626
46304.000			15.755			-2.626
46404.000			15.754			-2.626
46504.000			15.754			-2.626
46604.000			15.753			-2.625
46705.000			15.752			-2.625
46804.000			15.752			-2.625
46904.000			15.751			-2.625
47005.000			15.750			-2.625
47103.000			15.750			-2.625
47204.000			15.748			-2.625
47305.000			15.747			-2.625
47404.000			15.746			-2.624
47505.000			15.745			-2.624
47604.000			15.745			-2.624
47704.000			15.744			-2.624
47804.000			15.743			-2.624
47904.000			15.742			-2.624
48004.000			15.741			-2.624
48105.000			15.741			-2.623
48204.000			15.740			-2.623
48304.000			15.739			-2.623
48405.000			15.740			-2.623
48503.000			15.738			-2.623
48604.000			15.736			-2.623
48705.000			15.734			-2.622
48804.000			15.735			-2.622
48904.000			15.735			-2.622
49005.000			15.734			-2.622
49104.000			15.733			-2.622
49203.000			15.731			-2.622
49305.000			15.730			-2.622
49404.000			15.730			-2.622
49504.000			15.730			-2.622
49605.000			15.729			-2.621
49704.000			15.728			-2.621
49804.000			15.728			-2.621
49904.000			15.725			-2.621
50004.000			15.724			-2.621
50103.000			15.724			-2.621
50205.000			15.724			-2.621
50304.000			15.723			-2.620
50404.000			15.722			-2.620
50505.000			15.720			-2.620
50603.000			15.720			-2.620
50705.000			15.719			-2.620
50804.000			15.719			-2.620
50904.000			15.720			-2.620
51005.000			15.718			-2.620
51104.000			15.717			-2.620
51204.000			15.716			-2.619
51304.000			15.714			-2.619
51404.000			15.713			-2.619
51504.000			15.713			-2.619
51605.000			15.713			-2.619
51704.000			15.712			-2.619
51804.000			15.711			-2.618
51905.000			15.710			-2.618
52003.000			15.710			-2.618
52104.000			15.708			-2.618
52205.000			15.708			-2.618
52304.000			15.707			-2.618
52404.000			15.706			-2.618
52504.000			15.707			-2.618
52604.000			15.707			-2.618
52704.000			15.705			-2.617
52805.000			15.704			-2.617
52904.000			15.704			-2.617
53004.000			15.702			-2.617
53105.000			15.701			-2.617
53203.000			15.701			-2.617
53304.000			15.701			-2.617
53405.000			15.699			-2.616
53504.000			15.699			-2.617
53604.000			15.698			-2.616
53704.000			15.698			-2.616
53804.000			15.697			-2.616
53903.000			15.696			-2.616
54004.000			15.695			-2.616
54104.000			15.694			-2.616
54205.000			15.693			-2.616
54304.000			15.693			-2.615
54404.000			15.691			-2.615
54505.000			15.690			-2.615
54603.000			15.690			-2.615
54704.000			15.689			-2.615
54805.000			15.689			-2.615
54904.000			15.687			-2.615
55004.000			15.688			-2.615
55105.000			15.687			-2.615
55204.000			15.686			-2.614
55303.000			15.686			-2.614
55405.000			15.686			-2.614
55504.000			15.683			-2.614
55604.000			15.683			-2.614
55705.000			15.682			-2.614
55804.000			15.682			-2.614
55904.000			15.682			-2.614
56004.000			15.682			-2.614
56104.000			15.681			-2.613
56204.000			15.680			-2.613
56305.000			15.680			-2.613
56404.000			15.679			-2.613
56504.000			15.678			-2.613
56605.000			15.677			-2.613
56703.000			15.676			-2.613
56804.000			15.675			-2.613
56905.000			15.675			-2.612
57004.000			15.675			-2.612
57105.000			15.673			-2.612
57204.000			15.673			-2.612
57304.000			15.672			-2.612
57404.000			15.670			-2.612
57504.000			15.670			-2.612
57603.000			15.669			-2.612
57705.000			15.668			-2.611
57804.000			15.670			-2.612
57904.000			15.667			-2.611
58005.000			15.667			-2.611
58104.000			15.666			-2.611
58204.000			15.665			-2.611
58304.000			15.664			-2.611
58404.000			15.664			-2.611
58504.000			15.664			-2.611
58605.000			15.662			-2.610
58704.000			15.662			-2.610
58804.000			15.661			-2.610
58905.000			15.660			-2.610
59003.000			15.660			-2.610
59104.000			15.660			-2.610
59205.000			15.659			-2.610
59304.000			15.657			-2.610
59404.000			15.657			-2.610
59505.000			15.657			-2.610
59604.000			15.657			-2.609
59703.000			15.654			-2.609
59805.000			15.654			-2.609
59904.000			15.654			-2.609
60004.000			15.654			-2.609
60105.000			15.653			-2.609
60204.000			15.652			-2.609
60305.000			15.651			-2.608
60403.000			15.649			-2.608
60504.000			15.649			-2.608
60605.000			15.649			-2.608
60704.000			15.649			-2.608
60804.000			15.647			-2.608
60904.000			15.646			-2.608
61004.000			15.646			-2.608
61103.000			15.646			-2.608
61205.000			15.644			-2.607
61304.000			15.644			-2.607
61404.000			15.644			-2.607
61505.000			15.643			-2.607
61603.000			15.642			-2.607
61704.000			15.642			-2.607
61805.000			15.640			-2.607
61904.000			15.641			-2.607
62004.000			15.640			-2.607
62105.000			15.638			-2.606
62204.000			15.638			-2.606
62303.000			15.637			-2.606
62405.000			15.637			-2.606
62504.000			15.637			-2.606
62604.000			15.635			-2.606
62705.000			15.634			-2.606
62804.000			15.635			-2.606
62904.000			15.633			-2.606
63004.000			15.632			-2.605
63104.000			15.632			-2.605
63204.000			15.632			-2.605
63304.000			15.632			-2.605
63404.000			15.631			-2.605
63505.000			15.630			-2.605
63604.000			15.630			-2.605
63703.000			15.628			-2.605
63805.000			15.628			-2.605
63904.000			15.627			-2.605
64004.000			15.626			-2.604
64105.000			15.627			-2.604
64204.000			15.626			-2.604
64304.000			15.625			-2.604
64404.000			15.624			-2.604
64504.000			15.624			-2.604
64604.000			15.623			-2.604
64705.000			15.623			-2.604
64804.000			15.622			-2.604
64904.000			15.622			-2.604
65005.000			15.622			-2.604
65103.000			15.620			-2.603
65204.000			15.619			-2.603
65305.000			15.619			-2.603
65404.000			15.618			-2.603
65504.000			15.618			-2.603
65605.000			15.618			-2.603
65704.000			15.618			-2.603
65803.000			15.615			-2.602
65905.000			15.615			-2.603
66004.000			15.615			-2.602
66104.000			15.615			-2.602
66205.000			15.615			-2.602
66304.000			15.613			-2.602
66404.000			15.612			-2.602
66503.000			15.612			-2.602
66604.000			15.612			-2.602
66705.000			15.612			-2.602
66804.000			15.611			-2.602
66904.000			15.610			-2.602
67005.000			15.609			-2.602
67104.000			15.610			-2.602
67203.000			15.609			-2.601
67305.000			15.607			-2.601
67404.000			15.606			-2.601
67504.000			15.607			-2.601
67605.000			15.606			-2.601
67704.000			15.604			-2.601
67804.000			15.605			-2.601
67904.000			15.604			-2.601
68004.000			15.603			-2.600
68104.000			15.602			-2.600
68205.000			15.601			-2.600
68304.000			15.601			-2.600
68404.000			15.600			-2.600
68505.000			15.599			-2.600
68603.000			15.599			-2.600
68704.000			15.599			-2.600
68805.000			15.599			-2.600
68904.000			15.599			-2.600
69004.000			15.597			-2.600
69105.000			15.597			-2.599
69204.000			15.596			-2.599
69303.000			15.596			-2.599
69405.000			15.595			-2.599
69504.000			15.594			-2.599
69604.000			15.594			-2.599
69705.000			15.594			-2.599
69804.000			15.593			-2.599
69905.000			15.593			-2.599
70003.000			15.592			-2.599
70104.000			15.590			-2.598
70205.000			15.590			-2.598
70304.000			15.589			-2.598
70404.000			15.589			-2.598
70505.000			15.589			-2.598
70604.000			15.588			-2.598
70703.000			15.588			-2.598
70805.000			15.587			-2.598
70904.000			15.587			-2.598
71004.000			15.586			-2.598
71105.000			15.586			-2.598
71204.000			15.585			-2.597
