# Acquired on 26/01/2024 15:38:36 
# SPIDER: Creep_6mm_HM077x145x38AB-2
# CREEP MEASUREMENT

# time [ms]		force [N]		stiffness [N/mm]
1.000			-21.251			-3.542
105.000			-21.640			-3.607
204.000			-21.696			-3.616
304.000			-21.630			-3.605
405.000			-21.570			-3.595
504.000			-21.521			-3.587
605.000			-21.446			-3.574
703.000			-21.415			-3.569
804.000			-21.384			-3.564
905.000			-21.357			-3.560
1004.000			-21.333			-3.555
1104.000			-21.310			-3.552
1204.000			-21.288			-3.548
1304.000			-21.249			-3.541
1404.000			-21.230			-3.538
1505.000			-21.213			-3.535
1604.000			-21.198			-3.533
1704.000			-21.182			-3.530
1805.000			-21.167			-3.528
1904.000			-21.152			-3.525
2004.000			-21.127			-3.521
2105.000			-21.113			-3.519
2204.000			-21.102			-3.517
2304.000			-21.090			-3.515
2404.000			-21.078			-3.513
2504.000			-21.066			-3.511
2604.000			-21.055			-3.509
2705.000			-21.043			-3.507
2804.000			-21.024			-3.504
2903.000			-21.014			-3.502
3005.000			-21.004			-3.501
3104.000			-20.995			-3.499
3204.000			-20.986			-3.498
3305.000			-20.978			-3.496
3404.000			-20.971			-3.495
3504.000			-20.954			-3.492
3604.000			-20.945			-3.491
3704.000			-20.937			-3.490
3805.000			-20.929			-3.488
3904.000			-20.921			-3.487
4004.000			-20.915			-3.486
4104.000			-20.907			-3.484
4204.000			-20.891			-3.482
4304.000			-20.885			-3.481
4405.000			-20.878			-3.480
4504.000			-20.871			-3.478
4604.000			-20.865			-3.477
4705.000			-20.859			-3.476
4803.000			-20.853			-3.475
4904.000			-20.839			-3.473
5005.000			-20.834			-3.472
5104.000			-20.828			-3.471
5204.000			-20.822			-3.470
5305.000			-20.816			-3.469
5404.000			-20.811			-3.468
5503.000			-20.805			-3.467
5605.000			-20.800			-3.467
5704.000			-20.790			-3.465
5804.000			-20.784			-3.464
5905.000			-20.779			-3.463
6003.000			-20.774			-3.462
6104.000			-20.768			-3.461
6205.000			-20.763			-3.461
6304.000			-20.758			-3.460
6404.000			-20.749			-3.458
6505.000			-20.744			-3.457
6604.000			-20.738			-3.456
6703.000			-20.734			-3.456
6805.000			-20.730			-3.455
6904.000			-20.725			-3.454
7005.000			-20.720			-3.453
7104.000			-20.712			-3.452
7203.000			-20.707			-3.451
7305.000			-20.702			-3.450
7404.000			-20.699			-3.450
7504.000			-20.695			-3.449
7605.000			-20.690			-3.448
7704.000			-20.685			-3.448
7804.000			-20.676			-3.446
7904.000			-20.673			-3.446
8004.000			-20.670			-3.445
8104.000			-20.665			-3.444
8205.000			-20.661			-3.443
8304.000			-20.658			-3.443
8403.000			-20.655			-3.442
8505.000			-20.649			-3.442
8604.000			-20.641			-3.440
8704.000			-20.637			-3.440
8805.000			-20.635			-3.439
8904.000			-20.631			-3.439
9004.000			-20.626			-3.438
9104.000			-20.623			-3.437
9204.000			-20.620			-3.437
9304.000			-20.613			-3.435
9405.000			-20.609			-3.435
9504.000			-20.606			-3.434
9603.000			-20.603			-3.434
9705.000			-20.598			-3.433
9804.000			-20.595			-3.432
9904.000			-20.592			-3.432
10005.000			-20.586			-3.431
10104.000			-20.583			-3.430
10205.000			-20.579			-3.430
10303.000			-20.576			-3.429
10404.000			-20.574			-3.429
10505.000			-20.570			-3.428
10604.000			-20.567			-3.428
10704.000			-20.563			-3.427
10805.000			-20.559			-3.426
10904.000			-20.555			-3.426
11003.000			-20.552			-3.425
11105.000			-20.549			-3.425
11204.000			-20.546			-3.424
11304.000			-20.543			-3.424
11405.000			-20.540			-3.423
11504.000			-20.535			-3.422
11604.000			-20.532			-3.422
11704.000			-20.529			-3.421
11804.000			-20.526			-3.421
11904.000			-20.523			-3.420
12005.000			-20.520			-3.420
12104.000			-20.518			-3.420
12203.000			-20.512			-3.419
12305.000			-20.508			-3.418
12404.000			-20.506			-3.418
12504.000			-20.504			-3.417
12605.000			-20.502			-3.417
12704.000			-20.499			-3.416
12804.000			-20.495			-3.416
12904.000			-20.490			-3.415
13004.000			-20.487			-3.414
13104.000			-20.485			-3.414
13205.000			-20.482			-3.414
13304.000			-20.480			-3.413
13403.000			-20.478			-3.413
13504.000			-20.475			-3.413
13603.000			-20.473			-3.412
13705.000			-20.466			-3.411
13804.000			-20.464			-3.411
13904.000			-20.462			-3.410
14005.000			-20.460			-3.410
14103.000			-20.458			-3.410
14204.000			-20.456			-3.409
14305.000			-20.452			-3.409
14404.000			-20.448			-3.408
14504.000			-20.446			-3.408
14605.000			-20.443			-3.407
14704.000			-20.440			-3.407
14803.000			-20.438			-3.406
14905.000			-20.436			-3.406
15004.000			-20.433			-3.406
15104.000			-20.429			-3.405
15205.000			-20.426			-3.404
15304.000			-20.424			-3.404
15404.000			-20.421			-3.404
15504.000			-20.419			-3.403
15604.000			-20.417			-3.403
15704.000			-20.415			-3.403
15805.000			-20.411			-3.402
15904.000			-20.410			-3.402
16004.000			-20.407			-3.401
16105.000			-20.405			-3.401
16203.000			-20.403			-3.400
16304.000			-20.400			-3.400
16405.000			-20.398			-3.400
16504.000			-20.395			-3.399
16605.000			-20.393			-3.399
16704.000			-20.390			-3.398
16804.000			-20.388			-3.398
16904.000			-20.386			-3.398
17004.000			-20.384			-3.397
17104.000			-20.382			-3.397
17205.000			-20.380			-3.397
17304.000			-20.376			-3.396
17403.000			-20.373			-3.396
17505.000			-20.371			-3.395
17604.000			-20.370			-3.395
17704.000			-20.368			-3.395
17805.000			-20.366			-3.394
17904.000			-20.365			-3.394
18004.000			-20.360			-3.393
18104.000			-20.357			-3.393
18204.000			-20.355			-3.392
18304.000			-20.353			-3.392
18405.000			-20.351			-3.392
18504.000			-20.349			-3.392
18604.000			-20.348			-3.391
18705.000			-20.347			-3.391
18803.000			-20.343			-3.390
18904.000			-20.341			-3.390
19005.000			-20.339			-3.390
19104.000			-20.337			-3.390
19204.000			-20.335			-3.389
19305.000			-20.332			-3.389
19404.000			-20.331			-3.389
19503.000			-20.328			-3.388
19605.000			-20.327			-3.388
19704.000			-20.325			-3.387
19805.000			-20.322			-3.387
19904.000			-20.319			-3.387
20004.000			-20.318			-3.386
20105.000			-20.317			-3.386
20204.000			-20.313			-3.386
20304.000			-20.311			-3.385
20405.000			-20.310			-3.385
20504.000			-20.308			-3.385
20604.000			-20.306			-3.384
20704.000			-20.304			-3.384
20804.000			-20.303			-3.384
20904.000			-20.301			-3.383
21005.000			-20.298			-3.383
21104.000			-20.296			-3.383
21204.000			-20.295			-3.383
21305.000			-20.294			-3.382
21404.000			-20.292			-3.382
21504.000			-20.290			-3.382
21605.000			-20.288			-3.381
21704.000			-20.285			-3.381
21804.000			-20.283			-3.380
21904.000			-20.282			-3.380
22004.000			-20.280			-3.380
22104.000			-20.279			-3.380
22205.000			-20.277			-3.380
22304.000			-20.276			-3.379
22404.000			-20.271			-3.379
22505.000			-20.270			-3.378
22603.000			-20.269			-3.378
22704.000			-20.267			-3.378
22805.000			-20.265			-3.378
22904.000			-20.264			-3.377
23005.000			-20.263			-3.377
23104.000			-20.260			-3.377
23204.000			-20.258			-3.376
23304.000			-20.256			-3.376
23404.000			-20.255			-3.376
23504.000			-20.255			-3.376
23605.000			-20.252			-3.375
23704.000			-20.251			-3.375
23803.000			-20.248			-3.375
23905.000			-20.246			-3.374
24004.000			-20.243			-3.374
24104.000			-20.242			-3.374
24205.000			-20.241			-3.374
24304.000			-20.240			-3.373
24404.000			-20.239			-3.373
24504.000			-20.239			-3.373
24604.000			-20.234			-3.372
24704.000			-20.232			-3.372
24805.000			-20.233			-3.372
24904.000			-20.231			-3.372
25003.000			-20.228			-3.371
25105.000			-20.227			-3.371
25204.000			-20.225			-3.371
25304.000			-20.223			-3.371
25405.000			-20.222			-3.370
25504.000			-20.221			-3.370
25604.000			-20.220			-3.370
25704.000			-20.218			-3.370
25804.000			-20.216			-3.369
25904.000			-20.215			-3.369
26005.000			-20.212			-3.369
26104.000			-20.210			-3.368
26205.000			-20.209			-3.368
26304.000			-20.208			-3.368
26403.000			-20.206			-3.368
26505.000			-20.206			-3.368
26604.000			-20.204			-3.367
26704.000			-20.203			-3.367
26805.000			-20.199			-3.367
26903.000			-20.198			-3.366
27004.000			-20.196			-3.366
27105.000			-20.195			-3.366
27204.000			-20.194			-3.366
27304.000			-20.192			-3.365
27405.000			-20.191			-3.365
27504.000			-20.189			-3.365
27603.000			-20.187			-3.365
27705.000			-20.185			-3.364
27804.000			-20.183			-3.364
27904.000			-20.181			-3.364
28005.000			-20.182			-3.364
28104.000			-20.181			-3.364
28204.000			-20.178			-3.363
28304.000			-20.177			-3.363
28404.000			-20.175			-3.363
28504.000			-20.175			-3.362
28605.000			-20.175			-3.362
28704.000			-20.172			-3.362
28804.000			-20.171			-3.362
28905.000			-20.168			-3.361
29003.000			-20.166			-3.361
29104.000			-20.166			-3.361
29205.000			-20.165			-3.361
29304.000			-20.163			-3.361
29405.000			-20.162			-3.360
29503.000			-20.161			-3.360
29604.000			-20.161			-3.360
29705.000			-20.157			-3.360
29804.000			-20.156			-3.359
29904.000			-20.155			-3.359
30005.000			-20.153			-3.359
30104.000			-20.152			-3.359
30203.000			-20.150			-3.358
30305.000			-20.149			-3.358
30404.000			-20.147			-3.358
30504.000			-20.146			-3.358
30605.000			-20.145			-3.358
30704.000			-20.144			-3.357
30804.000			-20.142			-3.357
30904.000			-20.140			-3.357
31004.000			-20.139			-3.357
31104.000			-20.138			-3.356
31205.000			-20.137			-3.356
31304.000			-20.136			-3.356
31403.000			-20.135			-3.356
31505.000			-20.133			-3.356
31604.000			-20.132			-3.355
31704.000			-20.130			-3.355
31805.000			-20.129			-3.355
31904.000			-20.128			-3.355
32004.000			-20.127			-3.354
32104.000			-20.126			-3.354
32204.000			-20.125			-3.354
32304.000			-20.123			-3.354
32405.000			-20.121			-3.354
32504.000			-20.121			-3.353
32603.000			-20.118			-3.353
32704.000			-20.116			-3.353
32804.000			-20.116			-3.353
32905.000			-20.115			-3.353
33004.000			-20.115			-3.352
33104.000			-20.113			-3.352
33205.000			-20.113			-3.352
33303.000			-20.109			-3.352
33404.000			-20.109			-3.351
33505.000			-20.108			-3.351
33604.000			-20.106			-3.351
33704.000			-20.105			-3.351
33804.000			-20.104			-3.351
33904.000			-20.103			-3.351
34004.000			-20.101			-3.350
34105.000			-20.099			-3.350
34204.000			-20.098			-3.350
34304.000			-20.097			-3.350
34405.000			-20.096			-3.349
34503.000			-20.095			-3.349
34604.000			-20.093			-3.349
34705.000			-20.093			-3.349
34804.000			-20.090			-3.348
34904.000			-20.089			-3.348
35005.000			-20.088			-3.348
35104.000			-20.087			-3.348
35203.000			-20.086			-3.348
35305.000			-20.085			-3.348
35404.000			-20.084			-3.347
35504.000			-20.083			-3.347
35605.000			-20.082			-3.347
35703.000			-20.081			-3.347
35805.000			-20.080			-3.347
35904.000			-20.077			-3.346
36004.000			-20.076			-3.346
36105.000			-20.076			-3.346
36204.000			-20.075			-3.346
36304.000			-20.073			-3.346
36404.000			-20.071			-3.345
36504.000			-20.070			-3.345
36604.000			-20.069			-3.345
36705.000			-20.069			-3.345
36804.000			-20.068			-3.345
36904.000			-20.067			-3.345
37005.000			-20.065			-3.344
37104.000			-20.064			-3.344
37204.000			-20.064			-3.344
37305.000			-20.062			-3.344
37404.000			-20.060			-3.343
37504.000			-20.059			-3.343
37604.000			-20.058			-3.343
37704.000			-20.056			-3.343
37804.000			-20.055			-3.343
37905.000			-20.054			-3.342
38004.000			-20.054			-3.342
38104.000			-20.053			-3.342
38205.000			-20.051			-3.342
38303.000			-20.051			-3.342
38404.000			-20.049			-3.341
38505.000			-20.047			-3.341
38604.000			-20.046			-3.341
38704.000			-20.046			-3.341
38805.000			-20.046			-3.341
38904.000			-20.044			-3.341
39003.000			-20.043			-3.341
39104.000			-20.041			-3.340
39204.000			-20.041			-3.340
39305.000			-20.039			-3.340
39404.000			-20.039			-3.340
39503.000			-20.037			-3.340
39605.000			-20.036			-3.339
39704.000			-20.035			-3.339
39804.000			-20.034			-3.339
39905.000			-20.034			-3.339
40004.000			-20.033			-3.339
40104.000			-20.032			-3.339
40204.000			-20.031			-3.338
40304.000			-20.029			-3.338
40404.000			-20.028			-3.338
40505.000			-20.027			-3.338
40604.000			-20.025			-3.337
40704.000			-20.024			-3.337
40805.000			-20.023			-3.337
40903.000			-20.022			-3.337
41004.000			-20.022			-3.337
41105.000			-20.021			-3.337
41204.000			-20.020			-3.337
41304.000			-20.019			-3.336
41404.000			-20.018			-3.336
41504.000			-20.018			-3.336
41604.000			-20.014			-3.336
41705.000			-20.014			-3.336
41804.000			-20.014			-3.336
41904.000			-20.012			-3.335
42005.000			-20.011			-3.335
42104.000			-20.010			-3.335
42205.000			-20.008			-3.335
42304.000			-20.007			-3.335
42404.000			-20.007			-3.335
42505.000			-20.007			-3.334
42603.000			-20.006			-3.334
42704.000			-20.005			-3.334
42805.000			-20.002			-3.334
42904.000			-20.001			-3.334
43004.000			-20.001			-3.334
43105.000			-20.000			-3.333
43204.000			-19.999			-3.333
43303.000			-19.999			-3.333
43405.000			-19.998			-3.333
43504.000			-19.995			-3.333
43604.000			-19.995			-3.332
43705.000			-19.993			-3.332
43804.000			-19.993			-3.332
43904.000			-19.992			-3.332
44004.000			-19.991			-3.332
44104.000			-19.990			-3.332
44204.000			-19.988			-3.331
44305.000			-19.987			-3.331
44404.000			-19.987			-3.331
44504.000			-19.986			-3.331
44605.000			-19.986			-3.331
44703.000			-19.984			-3.331
44804.000			-19.983			-3.331
44905.000			-19.983			-3.330
45004.000			-19.982			-3.330
45104.000			-19.981			-3.330
45205.000			-19.979			-3.330
45304.000			-19.979			-3.330
45403.000			-19.978			-3.330
45504.000			-19.977			-3.330
45604.000			-19.977			-3.329
45705.000			-19.975			-3.329
45804.000			-19.975			-3.329
45904.000			-19.974			-3.329
46005.000			-19.972			-3.329
46103.000			-19.972			-3.329
46204.000			-19.972			-3.329
46305.000			-19.970			-3.328
46404.000			-19.968			-3.328
46504.000			-19.967			-3.328
46605.000			-19.966			-3.328
46704.000			-19.965			-3.328
46803.000			-19.965			-3.327
46905.000			-19.964			-3.327
47004.000			-19.963			-3.327
47104.000			-19.960			-3.327
47205.000			-19.961			-3.327
47304.000			-19.961			-3.327
47404.000			-19.959			-3.327
47504.000			-19.957			-3.326
47604.000			-19.958			-3.326
47704.000			-19.958			-3.326
47805.000			-19.956			-3.326
47904.000			-19.955			-3.326
48004.000			-19.954			-3.326
48105.000			-19.953			-3.326
48203.000			-19.952			-3.325
48304.000			-19.951			-3.325
48405.000			-19.950			-3.325
48504.000			-19.950			-3.325
48605.000			-19.949			-3.325
48704.000			-19.947			-3.325
48804.000			-19.946			-3.324
48905.000			-19.945			-3.324
49004.000			-19.944			-3.324
49103.000			-19.945			-3.324
49205.000			-19.944			-3.324
49304.000			-19.942			-3.324
49404.000			-19.943			-3.324
49505.000			-19.941			-3.323
49604.000			-19.939			-3.323
49704.000			-19.939			-3.323
49804.000			-19.938			-3.323
49904.000			-19.937			-3.323
50004.000			-19.937			-3.323
50105.000			-19.936			-3.323
50204.000			-19.935			-3.322
50304.000			-19.934			-3.322
50405.000			-19.933			-3.322
50503.000			-19.933			-3.322
50604.000			-19.931			-3.322
50705.000			-19.931			-3.322
50804.000			-19.930			-3.322
50904.000			-19.929			-3.321
51005.000			-19.927			-3.321
51104.000			-19.926			-3.321
51203.000			-19.927			-3.321
51305.000			-19.926			-3.321
51404.000			-19.925			-3.321
51504.000			-19.924			-3.321
51605.000			-19.923			-3.320
51704.000			-19.922			-3.320
51805.000			-19.921			-3.320
51903.000			-19.920			-3.320
52004.000			-19.918			-3.320
52105.000			-19.918			-3.320
52204.000			-19.918			-3.320
52304.000			-19.917			-3.320
52405.000			-19.915			-3.319
52504.000			-19.914			-3.319
52603.000			-19.914			-3.319
52705.000			-19.914			-3.319
52804.000			-19.913			-3.319
52904.000			-19.913			-3.319
53005.000			-19.910			-3.318
53104.000			-19.909			-3.318
53204.000			-19.908			-3.318
53304.000			-19.908			-3.318
53404.000			-19.908			-3.318
53504.000			-19.907			-3.318
53605.000			-19.906			-3.318
53704.000			-19.905			-3.318
53803.000			-19.905			-3.317
53905.000			-19.904			-3.317
54003.000			-19.904			-3.317
54104.000			-19.902			-3.317
54205.000			-19.900			-3.317
54304.000			-19.900			-3.317
54404.000			-19.899			-3.317
54504.000			-19.899			-3.316
54604.000			-19.898			-3.316
54703.000			-19.898			-3.316
54805.000			-19.898			-3.316
54904.000			-19.896			-3.316
55005.000			-19.895			-3.316
55104.000			-19.894			-3.316
55204.000			-19.893			-3.316
55305.000			-19.892			-3.315
55403.000			-19.892			-3.315
55504.000			-19.891			-3.315
55605.000			-19.890			-3.315
55704.000			-19.889			-3.315
55804.000			-19.889			-3.315
55905.000			-19.887			-3.315
56004.000			-19.887			-3.314
56103.000			-19.887			-3.314
56205.000			-19.887			-3.314
56304.000			-19.885			-3.314
56404.000			-19.883			-3.314
56505.000			-19.884			-3.314
56604.000			-19.882			-3.314
56704.000			-19.881			-3.314
56804.000			-19.881			-3.313
56904.000			-19.880			-3.313
57004.000			-19.879			-3.313
57105.000			-19.879			-3.313
57204.000			-19.878			-3.313
57304.000			-19.877			-3.313
57405.000			-19.876			-3.313
57504.000			-19.875			-3.313
57604.000			-19.876			-3.313
57704.000			-19.875			-3.312
57804.000			-19.873			-3.312
57904.000			-19.873			-3.312
58005.000			-19.872			-3.312
58104.000			-19.871			-3.312
58205.000			-19.870			-3.312
58304.000			-19.869			-3.311
58403.000			-19.869			-3.311
58505.000			-19.868			-3.311
58604.000			-19.868			-3.311
58704.000			-19.866			-3.311
58805.000			-19.865			-3.311
58904.000			-19.864			-3.311
59004.000			-19.864			-3.311
59104.000			-19.863			-3.311
59204.000			-19.863			-3.310
59304.000			-19.862			-3.310
59405.000			-19.861			-3.310
59504.000			-19.859			-3.310
59604.000			-19.859			-3.310
59705.000			-19.858			-3.310
59804.000			-19.858			-3.310
59904.000			-19.857			-3.309
60004.000			-19.856			-3.309
60104.000			-19.856			-3.309
60204.000			-19.855			-3.309
60305.000			-19.855			-3.309
60404.000			-19.854			-3.309
60503.000			-19.852			-3.309
60605.000			-19.852			-3.309
60704.000			-19.851			-3.309
60804.000			-19.851			-3.308
60905.000			-19.850			-3.308
61004.000			-19.849			-3.308
61104.000			-19.849			-3.308
61204.000			-19.848			-3.308
61304.000			-19.848			-3.308
61403.000			-19.847			-3.308
61504.000			-19.846			-3.308
61604.000			-19.846			-3.308
61705.000			-19.845			-3.307
61804.000			-19.844			-3.307
61904.000			-19.842			-3.307
62005.000			-19.842			-3.307
62103.000			-19.841			-3.307
62204.000			-19.840			-3.307
62305.000			-19.841			-3.307
62404.000			-19.841			-3.307
62504.000			-19.839			-3.307
62604.000			-19.838			-3.306
62704.000			-19.837			-3.306
62803.000			-19.836			-3.306
62905.000			-19.837			-3.306
63004.000			-19.837			-3.306
63104.000			-19.836			-3.306
63205.000			-19.832			-3.305
63303.000			-19.833			-3.305
63404.000			-19.833			-3.306
63505.000			-19.831			-3.305
63604.000			-19.831			-3.305
63704.000			-19.832			-3.305
63805.000			-19.831			-3.305
63904.000			-19.829			-3.305
64003.000			-19.829			-3.305
64105.000			-19.828			-3.305
64204.000			-19.827			-3.305
64304.000			-19.826			-3.304
64405.000			-19.825			-3.304
64504.000			-19.826			-3.304
64605.000			-19.824			-3.304
64703.000			-19.823			-3.304
64804.000			-19.823			-3.304
64905.000			-19.823			-3.304
65004.000			-19.823			-3.304
65104.000			-19.821			-3.304
65205.000			-19.821			-3.303
65304.000			-19.821			-3.303
65403.000			-19.817			-3.303
65505.000			-19.817			-3.303
65604.000			-19.817			-3.303
65704.000			-19.818			-3.303
65805.000			-19.817			-3.303
65904.000			-19.816			-3.303
66004.000			-19.815			-3.303
66104.000			-19.814			-3.302
66204.000			-19.813			-3.302
66304.000			-19.813			-3.302
66405.000			-19.813			-3.302
66504.000			-19.812			-3.302
66604.000			-19.811			-3.302
66705.000			-19.810			-3.302
66803.000			-19.810			-3.302
66904.000			-19.808			-3.301
67005.000			-19.807			-3.301
67104.000			-19.807			-3.301
67204.000			-19.807			-3.301
67305.000			-19.806			-3.301
67404.000			-19.804			-3.301
67503.000			-19.803			-3.301
67605.000			-19.803			-3.300
67704.000			-19.804			-3.301
67805.000			-19.804			-3.301
67904.000			-19.802			-3.300
68004.000			-19.801			-3.300
68105.000			-19.801			-3.300
68203.000			-19.801			-3.300
68304.000			-19.800			-3.300
68404.000			-19.798			-3.300
68504.000			-19.797			-3.299
68604.000			-19.797			-3.300
68705.000			-19.797			-3.300
