# Acquired on 10/01/2024 14:49:50 
# SPIDER: Creep_-5mm_07714532C-2
# CREEP MEASUREMENT

# time [ms]		force [N]		stiffness [N/mm]
0.000			7.703			-1.541
101.000			8.329			-1.666
202.000			8.611			-1.722
300.000			8.659			-1.732
400.000			8.601			-1.720
501.000			8.578			-1.716
600.000			8.560			-1.712
700.000			8.544			-1.709
802.000			8.530			-1.706
901.000			8.517			-1.703
1000.000			8.504			-1.701
1101.000			8.484			-1.697
1200.000			8.474			-1.695
1300.000			8.465			-1.693
1401.000			8.457			-1.691
1500.000			8.449			-1.690
1601.000			8.441			-1.688
1702.000			8.435			-1.687
1800.000			8.422			-1.684
1900.000			8.416			-1.683
2001.000			8.410			-1.682
2100.000			8.404			-1.681
2200.000			8.399			-1.680
2302.000			8.394			-1.679
2401.000			8.389			-1.678
2500.000			8.379			-1.676
2601.000			8.373			-1.675
2700.000			8.369			-1.674
2800.000			8.366			-1.673
2900.000			8.363			-1.673
3000.000			8.359			-1.672
3102.000			8.354			-1.671
3201.000			8.350			-1.670
3300.000			8.344			-1.669
3401.000			8.340			-1.668
3500.000			8.336			-1.667
3600.000			8.333			-1.667
3701.000			8.329			-1.666
3800.000			8.326			-1.665
3901.000			8.323			-1.665
4002.000			8.318			-1.664
4100.000			8.315			-1.663
4200.000			8.312			-1.662
4301.000			8.309			-1.662
4400.000			8.307			-1.661
4500.000			8.304			-1.661
4602.000			8.301			-1.660
4701.000			8.295			-1.659
4800.000			8.294			-1.659
4901.000			8.291			-1.658
5000.000			8.289			-1.658
5100.000			8.285			-1.657
5201.000			8.283			-1.657
5300.000			8.281			-1.656
5401.000			8.276			-1.655
5502.000			8.274			-1.655
5600.000			8.272			-1.654
5700.000			8.270			-1.654
5801.000			8.268			-1.654
5900.000			8.266			-1.653
6000.000			8.264			-1.653
6100.000			8.262			-1.652
6201.000			8.258			-1.652
6302.000			8.257			-1.651
6400.000			8.255			-1.651
6500.000			8.252			-1.650
6601.000			8.251			-1.650
6700.000			8.250			-1.650
6800.000			8.248			-1.650
6902.000			8.244			-1.649
7001.000			8.242			-1.648
7100.000			8.241			-1.648
7201.000			8.240			-1.648
7300.000			8.239			-1.648
7400.000			8.236			-1.647
7501.000			8.234			-1.647
7600.000			8.232			-1.646
7701.000			8.230			-1.646
7802.000			8.229			-1.646
7900.000			8.228			-1.646
8000.000			8.227			-1.645
8101.000			8.225			-1.645
8200.000			8.223			-1.645
8300.000			8.222			-1.644
8402.000			8.219			-1.644
8501.000			8.218			-1.644
8600.000			8.215			-1.643
8701.000			8.215			-1.643
8800.000			8.214			-1.643
8900.000			8.213			-1.643
9001.000			8.211			-1.642
9100.000			8.207			-1.641
9202.000			8.206			-1.641
9301.000			8.206			-1.641
9400.000			8.205			-1.641
9501.000			8.203			-1.641
9600.000			8.202			-1.640
9700.000			8.201			-1.640
9801.000			8.197			-1.639
9900.000			8.196			-1.639
10001.000			8.195			-1.639
10102.000			8.193			-1.639
10200.000			8.192			-1.638
10300.000			8.191			-1.638
10401.000			8.189			-1.638
10500.000			8.188			-1.638
10600.000			8.186			-1.637
10701.000			8.184			-1.637
10801.000			8.183			-1.637
10901.000			8.183			-1.637
11001.000			8.181			-1.636
11100.000			8.180			-1.636
11200.000			8.180			-1.636
11301.000			8.177			-1.635
11400.000			8.176			-1.635
11500.000			8.175			-1.635
11602.000			8.175			-1.635
11701.000			8.174			-1.635
11800.000			8.173			-1.635
11901.000			8.172			-1.634
12000.000			8.169			-1.634
12100.000			8.169			-1.634
12201.000			8.169			-1.634
12300.000			8.167			-1.633
12402.000			8.167			-1.633
12501.000			8.165			-1.633
12600.000			8.165			-1.633
12701.000			8.163			-1.633
12800.000			8.162			-1.632
12900.000			8.161			-1.632
13001.000			8.160			-1.632
13100.000			8.159			-1.632
13201.000			8.157			-1.631
13302.000			8.157			-1.631
13400.000			8.156			-1.631
13500.000			8.154			-1.631
13601.000			8.154			-1.631
13700.000			8.154			-1.631
13800.000			8.153			-1.631
13901.000			8.151			-1.630
14001.000			8.150			-1.630
14101.000			8.149			-1.630
14201.000			8.147			-1.629
14300.000			8.147			-1.629
14400.000			8.145			-1.629
14501.000			8.144			-1.629
14600.000			8.144			-1.629
14701.000			8.143			-1.629
14802.000			8.142			-1.628
14901.000			8.140			-1.628
15000.000			8.139			-1.628
15101.000			8.139			-1.628
15200.000			8.138			-1.628
15300.000			8.137			-1.627
15401.000			8.136			-1.627
15501.000			8.135			-1.627
15602.000			8.133			-1.627
15701.000			8.133			-1.627
15800.000			8.133			-1.627
15901.000			8.131			-1.626
16000.000			8.130			-1.626
16100.000			8.130			-1.626
16201.000			8.128			-1.626
16300.000			8.127			-1.625
16401.000			8.127			-1.625
16502.000			8.125			-1.625
16600.000			8.124			-1.625
16700.000			8.124			-1.625
16801.000			8.124			-1.625
16900.000			8.123			-1.625
17000.000			8.122			-1.624
17101.000			8.122			-1.624
17201.000			8.121			-1.624
17301.000			8.120			-1.624
17401.000			8.119			-1.624
17500.000			8.118			-1.624
17600.000			8.116			-1.623
17701.000			8.116			-1.623
17800.000			8.115			-1.623
17900.000			8.114			-1.623
18002.000			8.114			-1.623
18101.000			8.113			-1.623
18200.000			8.112			-1.622
18301.000			8.112			-1.622
18400.000			8.112			-1.622
18500.000			8.111			-1.622
18601.000			8.109			-1.622
18701.000			8.109			-1.622
18802.000			8.108			-1.622
18901.000			8.108			-1.622
19000.000			8.107			-1.621
19101.000			8.106			-1.621
19200.000			8.105			-1.621
19300.000			8.103			-1.621
19401.000			8.103			-1.621
19501.000			8.102			-1.620
19601.000			8.102			-1.620
19701.000			8.101			-1.620
19800.000			8.100			-1.620
19900.000			8.099			-1.620
20001.000			8.098			-1.620
20100.000			8.097			-1.619
20200.000			8.096			-1.619
20301.000			8.096			-1.619
20401.000			8.095			-1.619
20501.000			8.095			-1.619
20601.000			8.094			-1.619
20700.000			8.092			-1.618
20800.000			8.091			-1.618
20901.000			8.091			-1.618
21000.000			8.091			-1.618
21100.000			8.089			-1.618
21202.000			8.089			-1.618
21301.000			8.090			-1.618
21400.000			8.088			-1.618
21501.000			8.087			-1.617
21600.000			8.087			-1.617
21700.000			8.086			-1.617
21801.000			8.084			-1.617
21901.000			8.085			-1.617
22002.000			8.083			-1.617
22101.000			8.083			-1.617
22200.000			8.083			-1.617
22301.000			8.082			-1.616
22400.000			8.081			-1.616
22500.000			8.081			-1.616
22601.000			8.079			-1.616
22701.000			8.079			-1.616
22801.000			8.078			-1.616
22902.000			8.079			-1.616
23000.000			8.077			-1.615
23100.000			8.076			-1.615
23201.000			8.076			-1.615
23300.000			8.076			-1.615
23400.000			8.075			-1.615
23502.000			8.075			-1.615
23601.000			8.074			-1.615
23700.000			8.072			-1.614
23801.000			8.072			-1.614
23900.000			8.072			-1.614
24000.000			8.071			-1.614
24101.000			8.070			-1.614
24200.000			8.069			-1.614
24301.000			8.070			-1.614
24402.000			8.068			-1.614
24500.000			8.068			-1.614
24600.000			8.067			-1.613
24701.000			8.066			-1.613
24800.000			8.066			-1.613
24900.000			8.065			-1.613
25001.000			8.065			-1.613
25101.000			8.064			-1.613
25202.000			8.064			-1.613
25301.000			8.064			-1.613
25400.000			8.063			-1.613
25501.000			8.063			-1.613
25600.000			8.062			-1.612
25700.000			8.061			-1.612
25801.000			8.061			-1.612
25901.000			8.061			-1.612
26001.000			8.061			-1.612
26101.000			8.060			-1.612
26200.000			8.058			-1.612
26300.000			8.058			-1.612
26401.000			8.058			-1.612
26500.000			8.057			-1.611
26600.000			8.057			-1.611
26702.000			8.057			-1.611
26801.000			8.056			-1.611
26900.000			8.054			-1.611
27001.000			8.054			-1.611
27100.000			8.053			-1.611
27200.000			8.053			-1.611
27301.000			8.053			-1.611
27400.000			8.052			-1.610
27501.000			8.052			-1.610
27602.000			8.052			-1.610
27700.000			8.052			-1.610
27800.000			8.050			-1.610
27901.000			8.050			-1.610
28000.000			8.049			-1.610
28100.000			8.047			-1.609
28201.000			8.047			-1.609
28301.000			8.048			-1.610
28402.000			8.047			-1.609
28500.000			8.046			-1.609
28600.000			8.045			-1.609
28701.000			8.045			-1.609
28800.000			8.044			-1.609
28900.000			8.045			-1.609
29001.000			8.044			-1.609
29101.000			8.043			-1.609
29201.000			8.042			-1.608
29301.000			8.042			-1.608
29400.000			8.041			-1.608
29500.000			8.041			-1.608
29601.000			8.041			-1.608
29700.000			8.039			-1.608
29800.000			8.039			-1.608
29902.000			8.039			-1.608
30001.000			8.038			-1.608
30101.000			8.037			-1.607
30201.000			8.037			-1.607
30300.000			8.036			-1.607
30400.000			8.036			-1.607
30501.000			8.035			-1.607
30600.000			8.034			-1.607
30701.000			8.034			-1.607
30802.000			8.034			-1.607
30901.000			8.034			-1.607
31000.000			8.033			-1.607
31101.000			8.032			-1.606
31200.000			8.032			-1.606
31300.000			8.031			-1.606
31401.000			8.031			-1.606
31501.000			8.032			-1.606
31602.000			8.030			-1.606
31700.000			8.029			-1.606
31800.000			8.029			-1.606
31901.000			8.029			-1.606
32000.000			8.028			-1.606
32100.000			8.028			-1.606
32201.000			8.027			-1.605
32301.000			8.028			-1.606
32401.000			8.026			-1.605
32501.000			8.027			-1.605
32600.000			8.026			-1.605
32700.000			8.025			-1.605
32801.000			8.025			-1.605
32900.000			8.024			-1.605
33000.000			8.023			-1.605
33102.000			8.022			-1.604
33201.000			8.022			-1.604
33300.000			8.022			-1.604
33401.000			8.022			-1.604
33500.000			8.020			-1.604
33600.000			8.021			-1.604
33701.000			8.021			-1.604
33801.000			8.021			-1.604
33901.000			8.020			-1.604
34001.000			8.019			-1.604
34100.000			8.019			-1.604
34200.000			8.019			-1.604
34301.000			8.019			-1.604
34400.000			8.017			-1.603
34500.000			8.017			-1.603
34602.000			8.016			-1.603
34701.000			8.016			-1.603
34800.000			8.015			-1.603
34900.000			8.015			-1.603
35000.000			8.015			-1.603
35101.000			8.015			-1.603
35200.000			8.014			-1.603
35300.000			8.013			-1.603
35402.000			8.012			-1.602
35501.000			8.013			-1.603
35600.000			8.013			-1.603
35701.000			8.013			-1.603
35800.000			8.012			-1.602
35900.000			8.011			-1.602
36001.000			8.011			-1.602
36100.000			8.009			-1.602
36201.000			8.010			-1.602
36302.000			8.009			-1.602
36400.000			8.010			-1.602
36500.000			8.009			-1.602
36601.000			8.009			-1.602
36700.000			8.009			-1.602
36800.000			8.008			-1.602
36901.000			8.007			-1.601
37001.000			8.007			-1.601
37101.000			8.008			-1.602
37201.000			8.007			-1.601
37300.000			8.006			-1.601
37400.000			8.005			-1.601
37501.000			8.004			-1.601
37600.000			8.004			-1.601
37701.000			8.004			-1.601
37802.000			8.003			-1.601
37901.000			8.002			-1.600
38000.000			8.003			-1.601
38100.000			8.003			-1.601
38200.000			8.002			-1.600
38301.000			8.002			-1.600
38400.000			8.002			-1.600
38501.000			8.001			-1.600
38602.000			8.001			-1.600
38701.000			8.001			-1.600
38800.000			8.000			-1.600
38901.000			8.000			-1.600
39000.000			7.999			-1.600
39100.000			7.999			-1.600
39201.000			7.998			-1.600
39301.000			7.997			-1.599
39401.000			7.997			-1.599
39502.000			7.998			-1.600
39600.000			7.997			-1.599
39700.000			7.997			-1.599
39801.000			7.996			-1.599
39900.000			7.996			-1.599
40000.000			7.996			-1.599
40101.000			7.995			-1.599
40201.000			7.996			-1.599
40301.000			7.996			-1.599
40401.000			7.994			-1.599
40500.000			7.994			-1.599
40600.000			7.994			-1.599
40701.000			7.992			-1.598
40800.000			7.992			-1.598
40900.000			7.992			-1.598
41002.000			7.991			-1.598
41101.000			7.992			-1.598
41200.000			7.991			-1.598
41300.000			7.991			-1.598
41400.000			7.990			-1.598
41501.000			7.990			-1.598
41600.000			7.990			-1.598
41700.000			7.990			-1.598
41801.000			7.989			-1.598
41901.000			7.989			-1.598
42001.000			7.988			-1.598
42101.000			7.987			-1.597
42200.000			7.987			-1.597
42300.000			7.986			-1.597
42401.000			7.986			-1.597
42500.000			7.988			-1.598
42600.000			7.987			-1.597
42702.000			7.986			-1.597
42801.000			7.985			-1.597
42900.000			7.985			-1.597
43001.000			7.985			-1.597
43100.000			7.985			-1.597
43200.000			7.985			-1.597
43301.000			7.985			-1.597
43400.000			7.984			-1.597
43501.000			7.984			-1.597
43602.000			7.983			-1.597
43700.000			7.983			-1.597
43800.000			7.983			-1.597
43901.000			7.982			-1.596
44000.000			7.982			-1.596
44100.000			7.981			-1.596
44201.000			7.981			-1.596
44301.000			7.981			-1.596
44402.000			7.981			-1.596
44501.000			7.980			-1.596
44600.000			7.980			-1.596
44701.000			7.980			-1.596
44800.000			7.979			-1.596
44900.000			7.979			-1.596
45001.000			7.979			-1.596
45100.000			7.978			-1.596
45201.000			7.978			-1.596
45302.000			7.978			-1.596
45400.000			7.978			-1.596
45500.000			7.979			-1.596
45601.000			7.977			-1.595
45700.000			7.975			-1.595
45800.000			7.975			-1.595
45901.000			7.976			-1.595
46001.000			7.976			-1.595
46101.000			7.975			-1.595
46202.000			7.975			-1.595
46300.000			7.975			-1.595
46400.000			7.974			-1.595
46501.000			7.974			-1.595
46600.000			7.973			-1.595
46700.000			7.974			-1.595
46801.000			7.973			-1.595
46901.000			7.973			-1.595
47001.000			7.973			-1.595
47101.000			7.972			-1.594
47200.000			7.971			-1.594
47300.000			7.971			-1.594
47401.000			7.971			-1.594
47500.000			7.970			-1.594
47600.000			7.969			-1.594
47702.000			7.971			-1.594
47801.000			7.970			-1.594
47901.000			7.969			-1.594
48000.000			7.969			-1.594
48100.000			7.969			-1.594
48201.000			7.968			-1.594
48300.000			7.968			-1.594
48400.000			7.969			-1.594
48501.000			7.968			-1.594
48601.000			7.967			-1.593
48701.000			7.967			-1.593
48801.000			7.967			-1.593
48900.000			7.967			-1.593
49000.000			7.967			-1.593
49101.000			7.966			-1.593
49200.000			7.967			-1.593
49300.000			7.966			-1.593
49402.000			7.966			-1.593
49501.000			7.965			-1.593
49601.000			7.965			-1.593
49701.000			7.964			-1.593
49800.000			7.965			-1.593
49900.000			7.966			-1.593
50001.000			7.964			-1.593
50100.000			7.964			-1.593
50200.000			7.965			-1.593
50302.000			7.964			-1.593
50401.000			7.964			-1.593
50500.000			7.963			-1.593
50601.000			7.963			-1.593
50700.000			7.963			-1.593
50800.000			7.963			-1.593
50900.000			7.963			-1.593
51000.000			7.962			-1.592
51102.000			7.962			-1.592
51201.000			7.961			-1.592
51300.000			7.961			-1.592
51401.000			7.960			-1.592
51500.000			7.960			-1.592
51600.000			7.959			-1.592
51701.000			7.959			-1.592
51800.000			7.960			-1.592
51901.000			7.960			-1.592
52002.000			7.960			-1.592
52100.000			7.958			-1.592
52200.000			7.958			-1.592
52301.000			7.958			-1.592
52400.000			7.958			-1.592
52500.000			7.959			-1.592
52601.000			7.958			-1.592
52701.000			7.957			-1.591
52801.000			7.957			-1.591
52901.000			7.956			-1.591
53000.000			7.957			-1.591
53100.000			7.957			-1.591
53201.000			7.956			-1.591
53300.000			7.955			-1.591
53400.000			7.954			-1.591
53502.000			7.954			-1.591
53601.000			7.954			-1.591
53701.000			7.954			-1.591
53801.000			7.955			-1.591
53900.000			7.954			-1.591
54000.000			7.953			-1.591
54100.000			7.953			-1.591
54200.000			7.953			-1.591
54301.000			7.953			-1.591
54401.000			7.953			-1.591
54501.000			7.952			-1.590
54601.000			7.951			-1.590
54700.000			7.952			-1.590
54800.000			7.952			-1.590
54901.000			7.951			-1.590
55000.000			7.950			-1.590
55100.000			7.951			-1.590
55202.000			7.951			-1.590
55301.000			7.950			-1.590
55400.000			7.949			-1.590
55501.000			7.949			-1.590
55600.000			7.949			-1.590
55700.000			7.949			-1.590
55801.000			7.948			-1.590
55900.000			7.948			-1.590
56001.000			7.947			-1.589
56102.000			7.946			-1.589
56200.000			7.946			-1.589
56300.000			7.946			-1.589
56401.000			7.946			-1.589
56500.000			7.947			-1.589
56600.000			7.946			-1.589
56701.000			7.947			-1.589
56801.000			7.946			-1.589
56901.000			7.946			-1.589
57002.000			7.945			-1.589
57100.000			7.945			-1.589
57200.000			7.944			-1.589
57300.000			7.944			-1.589
57400.000			7.945			-1.589
57501.000			7.945			-1.589
57600.000			7.944			-1.589
57701.000			7.944			-1.589
57802.000			7.943			-1.589
57900.000			7.943			-1.589
58000.000			7.943			-1.589
58101.000			7.944			-1.589
58200.000			7.943			-1.589
58300.000			7.942			-1.588
58401.000			7.941			-1.588
58501.000			7.942			-1.588
58601.000			7.941			-1.588
58701.000			7.941			-1.588
58800.000			7.941			-1.588
58900.000			7.940			-1.588
59001.000			7.940			-1.588
59100.000			7.940			-1.588
59200.000			7.939			-1.588
59302.000			7.939			-1.588
59401.000			7.939			-1.588
59501.000			7.939			-1.588
59601.000			7.939			-1.588
59700.000			7.939			-1.588
59800.000			7.938			-1.588
59901.000			7.937			-1.587
60000.000			7.938			-1.588
60100.000			7.937			-1.587
60202.000			7.937			-1.587
60301.000			7.937			-1.587
60400.000			7.937			-1.587
60500.000			7.937			-1.587
60600.000			7.936			-1.587
60701.000			7.936			-1.587
60800.000			7.935			-1.587
60900.000			7.935			-1.587
61002.000			7.934			-1.587
61101.000			7.934			-1.587
61200.000			7.934			-1.587
61301.000			7.934			-1.587
61400.000			7.934			-1.587
61500.000			7.934			-1.587
61601.000			7.933			-1.587
61700.000			7.933			-1.587
61801.000			7.934			-1.587
61902.000			7.934			-1.587
62000.000			7.933			-1.587
62100.000			7.932			-1.586
62201.000			7.932			-1.586
62300.000			7.932			-1.586
62400.000			7.932			-1.586
62501.000			7.931			-1.586
62601.000			7.931			-1.586
62701.000			7.932			-1.586
62801.000			7.932			-1.586
62900.000			7.932			-1.586
63000.000			7.932			-1.586
63101.000			7.930			-1.586
63200.000			7.930			-1.586
63300.000			7.930			-1.586
63402.000			7.930			-1.586
63501.000			7.930			-1.586
63600.000			7.930			-1.586
63700.000			7.929			-1.586
63800.000			7.928			-1.586
63901.000			7.929			-1.586
64000.000			7.929			-1.586
64100.000			7.928			-1.586
64202.000			7.928			-1.586
64301.000			7.929			-1.586
64401.000			7.928			-1.586
64501.000			7.927			-1.585
64600.000			7.927			-1.585
64700.000			7.927			-1.585
64801.000			7.928			-1.586
64900.000			7.927			-1.585
65000.000			7.926			-1.585
65102.000			7.926			-1.585
65201.000			7.927			-1.585
65300.000			7.926			-1.585
65401.000			7.926			-1.585
65500.000			7.925			-1.585
65600.000			7.925			-1.585
65701.000			7.925			-1.585
65800.000			7.925			-1.585
65901.000			7.925			-1.585
66002.000			7.924			-1.585
66100.000			7.924			-1.585
66200.000			7.923			-1.585
66301.000			7.923			-1.585
66400.000			7.923			-1.585
66500.000			7.923			-1.585
66601.000			7.923			-1.585
66701.000			7.922			-1.584
66802.000			7.922			-1.584
66901.000			7.923			-1.585
67000.000			7.922			-1.584
67101.000			7.922			-1.584
67200.000			7.922			-1.584
67300.000			7.921			-1.584
67401.000			7.922			-1.584
67501.000			7.922			-1.584
67601.000			7.921			-1.584
67702.000			7.919			-1.584
67800.000			7.919			-1.584
67900.000			7.920			-1.584
68001.000			7.920			-1.584
68100.000			7.920			-1.584
68200.000			7.919			-1.584
68301.000			7.920			-1.584
68401.000			7.919			-1.584
68501.000			7.919			-1.584
68601.000			7.918			-1.584
68700.000			7.918			-1.584
68800.000			7.918			-1.584
68901.000			7.917			-1.583
69000.000			7.917			-1.583
69100.000			7.917			-1.583
69202.000			7.917			-1.583
69301.000			7.917			-1.583
69401.000			7.917			-1.583
69501.000			7.917			-1.583
69600.000			7.916			-1.583
69700.000			7.916			-1.583
69801.000			7.916			-1.583
69900.000			7.915			-1.583
70000.000			7.916			-1.583
70102.000			7.916			-1.583
70201.000			7.915			-1.583
70301.000			7.914			-1.583
70400.000			7.915			-1.583
70500.000			7.914			-1.583
70601.000			7.914			-1.583
70700.000			7.914			-1.583
70800.000			7.914			-1.583
70902.000			7.914			-1.583
71001.000			7.914			-1.583
71100.000			7.914			-1.583
71201.000			7.914			-1.583
71300.000			7.914			-1.583
71400.000			7.913			-1.583
71501.000			7.913			-1.583
71600.000			7.913			-1.583
71701.000			7.913			-1.583
71802.000			7.911			-1.582
71900.000			7.911			-1.582
72000.000			7.911			-1.582
72101.000			7.910			-1.582
72200.000			7.911			-1.582
72300.000			7.911			-1.582
72401.000			7.910			-1.582
72501.000			7.910			-1.582
72601.000			7.909			-1.582
72701.000			7.909			-1.582
72800.000			7.910			-1.582
72900.000			7.909			-1.582
73001.000			7.909			-1.582
73100.000			7.909			-1.582
73200.000			7.907			-1.581
73302.000			7.907			-1.581
73401.000			7.908			-1.582
73502.000			7.908			-1.582
73600.000			7.908			-1.582
73700.000			7.907			-1.581
73801.000			7.906			-1.581
73900.000			7.906			-1.581
