# Acquired on 25/01/2024 16:10:50 
# SPIDER: Creep_-6mm_GRPCNT1454A-2
# CREEP MEASUREMENT

# time [ms]		force [N]		stiffness [N/mm]
0.000			24.100			-4.017
104.000			24.498			-4.083
205.000			24.421			-4.070
303.000			24.210			-4.035
404.000			24.046			-4.008
505.000			23.914			-3.986
604.000			23.804			-3.967
704.000			23.625			-3.938
804.000			23.550			-3.925
904.000			23.482			-3.914
1004.000			23.420			-3.903
1105.000			23.364			-3.894
1204.000			23.312			-3.885
1304.000			23.263			-3.877
1405.000			23.174			-3.862
1503.000			23.135			-3.856
1604.000			23.097			-3.849
1705.000			23.061			-3.844
1804.000			23.027			-3.838
1904.000			22.995			-3.833
2004.000			22.964			-3.827
2104.000			22.904			-3.817
2204.000			22.877			-3.813
2305.000			22.851			-3.809
2404.000			22.825			-3.804
2504.000			22.801			-3.800
2605.000			22.777			-3.796
2703.000			22.755			-3.792
2805.000			22.713			-3.786
2904.000			22.692			-3.782
3004.000			22.672			-3.779
3105.000			22.654			-3.776
3203.000			22.634			-3.772
3304.000			22.615			-3.769
3405.000			22.597			-3.766
3504.000			22.580			-3.763
3604.000			22.548			-3.758
3705.000			22.532			-3.755
3804.000			22.516			-3.753
3903.000			22.500			-3.750
4005.000			22.485			-3.748
4104.000			22.470			-3.745
4204.000			22.456			-3.743
4305.000			22.428			-3.738
4403.000			22.415			-3.736
4504.000			22.403			-3.734
4605.000			22.390			-3.732
4704.000			22.377			-3.730
4804.000			22.364			-3.727
4905.000			22.352			-3.725
5004.000			22.329			-3.721
5103.000			22.317			-3.720
5205.000			22.306			-3.718
5304.000			22.295			-3.716
5404.000			22.285			-3.714
5505.000			22.274			-3.712
5603.000			22.263			-3.710
5704.000			22.252			-3.709
5805.000			22.232			-3.705
5904.000			22.222			-3.704
6005.000			22.213			-3.702
6104.000			22.203			-3.700
6204.000			22.194			-3.699
6304.000			22.183			-3.697
6404.000			22.174			-3.696
6504.000			22.157			-3.693
6605.000			22.149			-3.691
6704.000			22.139			-3.690
6803.000			22.130			-3.688
6905.000			22.122			-3.687
7004.000			22.113			-3.686
7104.000			22.104			-3.684
7205.000			22.089			-3.682
7304.000			22.082			-3.680
7404.000			22.074			-3.679
7504.000			22.067			-3.678
7604.000			22.060			-3.677
7704.000			22.053			-3.675
7805.000			22.045			-3.674
7904.000			22.031			-3.672
8004.000			22.022			-3.670
8105.000			22.016			-3.669
8204.000			22.009			-3.668
8304.000			22.002			-3.667
8405.000			21.996			-3.666
8504.000			21.988			-3.665
8604.000			21.982			-3.664
8704.000			21.968			-3.661
8804.000			21.961			-3.660
8904.000			21.955			-3.659
9004.000			21.948			-3.658
9104.000			21.942			-3.657
9205.000			21.936			-3.656
9304.000			21.930			-3.655
9403.000			21.919			-3.653
9505.000			21.914			-3.652
9604.000			21.907			-3.651
9704.000			21.900			-3.650
9805.000			21.895			-3.649
9904.000			21.889			-3.648
10004.000			21.883			-3.647
10104.000			21.872			-3.645
10204.000			21.867			-3.645
10304.000			21.861			-3.643
10405.000			21.855			-3.642
10504.000			21.850			-3.642
10603.000			21.845			-3.641
10705.000			21.841			-3.640
10804.000			21.829			-3.638
10904.000			21.824			-3.637
11005.000			21.819			-3.637
11104.000			21.814			-3.636
11204.000			21.809			-3.635
11304.000			21.803			-3.634
11404.000			21.798			-3.633
11504.000			21.792			-3.632
11605.000			21.784			-3.631
11704.000			21.779			-3.630
11804.000			21.774			-3.629
11905.000			21.769			-3.628
12003.000			21.764			-3.627
12104.000			21.760			-3.627
12205.000			21.755			-3.626
12304.000			21.746			-3.624
12405.000			21.741			-3.624
12504.000			21.737			-3.623
12604.000			21.732			-3.622
12704.000			21.726			-3.621
12804.000			21.723			-3.620
12904.000			21.718			-3.620
13005.000			21.709			-3.618
13104.000			21.705			-3.618
13203.000			21.701			-3.617
13305.000			21.696			-3.616
13404.000			21.693			-3.615
13504.000			21.687			-3.615
13605.000			21.684			-3.614
13704.000			21.676			-3.613
13804.000			21.672			-3.612
13904.000			21.667			-3.611
14004.000			21.662			-3.610
14104.000			21.658			-3.610
14205.000			21.654			-3.609
14304.000			21.651			-3.608
14404.000			21.647			-3.608
14505.000			21.638			-3.606
14603.000			21.635			-3.606
14704.000			21.631			-3.605
14805.000			21.626			-3.604
14904.000			21.622			-3.604
15004.000			21.618			-3.603
15105.000			21.614			-3.602
15204.000			21.607			-3.601
15303.000			21.605			-3.601
15405.000			21.601			-3.600
15504.000			21.597			-3.600
15605.000			21.593			-3.599
15704.000			21.588			-3.598
15803.000			21.584			-3.597
15905.000			21.578			-3.596
16004.000			21.575			-3.596
16104.000			21.572			-3.595
16205.000			21.568			-3.595
16304.000			21.564			-3.594
16404.000			21.561			-3.594
16504.000			21.558			-3.593
16604.000			21.550			-3.592
16703.000			21.546			-3.591
16805.000			21.543			-3.591
16904.000			21.541			-3.590
17004.000			21.537			-3.590
17105.000			21.533			-3.589
17203.000			21.529			-3.588
17304.000			21.526			-3.588
17405.000			21.520			-3.587
17504.000			21.517			-3.586
17604.000			21.514			-3.586
17705.000			21.510			-3.585
17804.000			21.507			-3.584
17903.000			21.504			-3.584
18005.000			21.501			-3.584
18104.000			21.494			-3.582
18204.000			21.490			-3.582
18305.000			21.488			-3.581
18404.000			21.486			-3.581
18504.000			21.483			-3.581
18603.000			21.480			-3.580
18704.000			21.477			-3.580
18805.000			21.471			-3.578
18904.000			21.468			-3.578
19004.000			21.465			-3.577
19105.000			21.462			-3.577
19204.000			21.459			-3.576
19303.000			21.456			-3.576
19405.000			21.452			-3.575
19504.000			21.449			-3.575
19604.000			21.445			-3.574
19705.000			21.442			-3.574
19804.000			21.439			-3.573
19904.000			21.435			-3.573
20004.000			21.433			-3.572
20104.000			21.431			-3.572
20204.000			21.428			-3.571
20305.000			21.422			-3.570
20404.000			21.420			-3.570
20503.000			21.417			-3.570
20605.000			21.415			-3.569
20704.000			21.413			-3.569
20804.000			21.411			-3.569
20905.000			21.409			-3.568
21004.000			21.403			-3.567
21104.000			21.401			-3.567
21204.000			21.398			-3.566
21304.000			21.396			-3.566
21404.000			21.395			-3.566
21505.000			21.391			-3.565
21604.000			21.388			-3.565
21703.000			21.384			-3.564
21805.000			21.382			-3.564
21904.000			21.379			-3.563
22005.000			21.376			-3.563
22104.000			21.374			-3.562
22204.000			21.371			-3.562
22305.000			21.369			-3.561
22403.000			21.366			-3.561
22504.000			21.360			-3.560
22605.000			21.357			-3.560
22704.000			21.355			-3.559
22804.000			21.353			-3.559
22905.000			21.351			-3.558
23004.000			21.349			-3.558
23103.000			21.346			-3.558
23205.000			21.340			-3.557
23304.000			21.339			-3.557
23404.000			21.337			-3.556
23505.000			21.335			-3.556
23603.000			21.332			-3.555
23704.000			21.330			-3.555
23805.000			21.328			-3.555
23904.000			21.322			-3.554
24004.000			21.321			-3.553
24105.000			21.319			-3.553
24204.000			21.315			-3.553
24303.000			21.314			-3.552
24405.000			21.312			-3.552
24504.000			21.310			-3.552
24604.000			21.305			-3.551
24705.000			21.303			-3.550
24804.000			21.300			-3.550
24904.000			21.299			-3.550
25003.000			21.297			-3.549
25104.000			21.294			-3.549
25205.000			21.292			-3.549
25304.000			21.290			-3.548
25404.000			21.286			-3.548
25504.000			21.283			-3.547
25604.000			21.281			-3.547
25704.000			21.278			-3.546
25805.000			21.277			-3.546
25904.000			21.274			-3.546
26004.000			21.272			-3.545
26105.000			21.266			-3.544
26203.000			21.264			-3.544
26304.000			21.263			-3.544
26405.000			21.261			-3.543
26504.000			21.258			-3.543
26604.000			21.256			-3.543
26705.000			21.255			-3.542
26804.000			21.249			-3.542
26903.000			21.248			-3.541
27005.000			21.246			-3.541
27104.000			21.244			-3.541
27204.000			21.242			-3.540
27305.000			21.238			-3.540
27404.000			21.237			-3.539
27504.000			21.233			-3.539
27604.000			21.231			-3.538
27704.000			21.229			-3.538
27804.000			21.226			-3.538
27905.000			21.224			-3.537
28004.000			21.222			-3.537
28103.000			21.220			-3.537
28205.000			21.216			-3.536
28304.000			21.214			-3.536
28405.000			21.212			-3.535
28504.000			21.210			-3.535
28604.000			21.209			-3.535
28705.000			21.207			-3.534
28803.000			21.205			-3.534
28904.000			21.203			-3.534
29005.000			21.199			-3.533
29104.000			21.198			-3.533
29204.000			21.196			-3.533
29305.000			21.194			-3.532
29404.000			21.193			-3.532
29503.000			21.192			-3.532
29605.000			21.190			-3.532
29704.000			21.186			-3.531
29804.000			21.185			-3.531
29905.000			21.183			-3.531
30004.000			21.182			-3.530
30104.000			21.180			-3.530
30204.000			21.178			-3.530
30304.000			21.176			-3.529
30404.000			21.172			-3.529
30505.000			21.170			-3.528
30604.000			21.168			-3.528
30703.000			21.168			-3.528
30805.000			21.166			-3.528
30904.000			21.164			-3.527
31004.000			21.163			-3.527
31105.000			21.159			-3.526
31204.000			21.158			-3.526
31304.000			21.156			-3.526
31403.000			21.154			-3.526
31504.000			21.152			-3.525
31605.000			21.151			-3.525
31704.000			21.149			-3.525
31804.000			21.147			-3.525
31905.000			21.143			-3.524
32004.000			21.141			-3.524
32103.000			21.140			-3.523
32205.000			21.139			-3.523
32304.000			21.138			-3.523
32404.000			21.136			-3.523
32505.000			21.135			-3.522
32603.000			21.130			-3.522
32704.000			21.130			-3.522
32805.000			21.127			-3.521
32904.000			21.126			-3.521
33004.000			21.125			-3.521
33105.000			21.123			-3.520
33204.000			21.122			-3.520
33303.000			21.117			-3.520
33405.000			21.115			-3.519
33504.000			21.114			-3.519
33604.000			21.113			-3.519
33705.000			21.111			-3.519
33803.000			21.109			-3.518
33904.000			21.108			-3.518
34005.000			21.105			-3.517
34104.000			21.102			-3.517
34204.000			21.100			-3.517
34305.000			21.100			-3.517
34404.000			21.097			-3.516
34503.000			21.096			-3.516
34605.000			21.094			-3.516
34704.000			21.093			-3.515
34805.000			21.089			-3.515
34904.000			21.087			-3.514
35004.000			21.085			-3.514
35105.000			21.083			-3.514
35203.000			21.082			-3.514
35304.000			21.080			-3.513
35405.000			21.079			-3.513
35504.000			21.076			-3.513
35604.000			21.073			-3.512
35704.000			21.071			-3.512
35804.000			21.070			-3.512
35904.000			21.068			-3.511
36005.000			21.066			-3.511
36104.000			21.064			-3.511
36204.000			21.062			-3.510
36305.000			21.059			-3.510
36403.000			21.059			-3.510
36504.000			21.056			-3.509
36605.000			21.054			-3.509
36704.000			21.053			-3.509
36804.000			21.051			-3.509
36905.000			21.049			-3.508
37004.000			21.047			-3.508
37103.000			21.045			-3.508
37205.000			21.044			-3.507
37304.000			21.042			-3.507
37404.000			21.040			-3.507
37505.000			21.039			-3.507
37603.000			21.038			-3.506
37704.000			21.034			-3.506
37805.000			21.034			-3.506
37904.000			21.034			-3.506
38005.000			21.033			-3.505
38104.000			21.032			-3.505
38204.000			21.029			-3.505
38304.000			21.028			-3.505
38404.000			21.025			-3.504
38504.000			21.025			-3.504
38605.000			21.024			-3.504
38704.000			21.023			-3.504
38803.000			21.022			-3.504
38905.000			21.019			-3.503
39004.000			21.018			-3.503
39104.000			21.016			-3.503
39205.000			21.014			-3.502
39304.000			21.014			-3.502
39404.000			21.012			-3.502
39504.000			21.011			-3.502
39604.000			21.009			-3.502
39704.000			21.008			-3.501
39805.000			21.005			-3.501
39904.000			21.004			-3.501
40004.000			21.003			-3.501
40105.000			21.002			-3.500
40203.000			21.000			-3.500
40304.000			21.000			-3.500
40405.000			20.998			-3.500
40504.000			20.996			-3.499
40604.000			20.994			-3.499
40704.000			20.992			-3.499
40804.000			20.991			-3.499
40904.000			20.991			-3.498
41004.000			20.989			-3.498
41104.000			20.988			-3.498
41205.000			20.987			-3.498
41304.000			20.984			-3.497
41403.000			20.983			-3.497
41505.000			20.982			-3.497
41604.000			20.980			-3.497
41704.000			20.980			-3.497
41805.000			20.979			-3.497
41904.000			20.977			-3.496
42004.000			20.973			-3.495
42104.000			20.972			-3.495
42204.000			20.971			-3.495
42304.000			20.969			-3.495
42405.000			20.968			-3.495
42504.000			20.967			-3.495
42604.000			20.966			-3.494
42705.000			20.963			-3.494
42803.000			20.962			-3.494
42904.000			20.960			-3.493
43005.000			20.959			-3.493
43104.000			20.958			-3.493
43204.000			20.957			-3.493
43305.000			20.955			-3.493
43404.000			20.953			-3.492
43503.000			20.951			-3.492
43605.000			20.949			-3.492
43704.000			20.948			-3.491
43804.000			20.947			-3.491
43905.000			20.945			-3.491
44003.000			20.944			-3.491
44104.000			20.943			-3.491
44205.000			20.940			-3.490
44304.000			20.939			-3.490
44405.000			20.936			-3.489
44504.000			20.934			-3.489
44604.000			20.934			-3.489
44704.000			20.933			-3.489
44804.000			20.931			-3.489
44904.000			20.929			-3.488
45005.000			20.926			-3.488
45104.000			20.927			-3.488
45204.000			20.926			-3.488
45305.000			20.924			-3.487
45403.000			20.922			-3.487
45504.000			20.921			-3.487
45605.000			20.918			-3.486
45704.000			20.917			-3.486
45804.000			20.916			-3.486
45905.000			20.914			-3.486
46004.000			20.913			-3.485
46103.000			20.912			-3.485
46205.000			20.910			-3.485
46304.000			20.910			-3.485
46404.000			20.906			-3.484
46505.000			20.905			-3.484
46604.000			20.904			-3.484
46704.000			20.903			-3.484
46804.000			20.902			-3.484
46904.000			20.900			-3.483
47004.000			20.899			-3.483
47105.000			20.897			-3.483
47204.000			20.897			-3.483
47303.000			20.895			-3.483
47405.000			20.894			-3.482
47504.000			20.894			-3.482
47605.000			20.893			-3.482
47704.000			20.892			-3.482
47804.000			20.890			-3.482
47905.000			20.888			-3.481
48004.000			20.887			-3.481
48104.000			20.886			-3.481
48204.000			20.885			-3.481
48304.000			20.884			-3.481
48404.000			20.883			-3.480
48505.000			20.879			-3.480
48604.000			20.879			-3.480
48704.000			20.877			-3.480
48805.000			20.876			-3.479
48903.000			20.875			-3.479
49004.000			20.874			-3.479
49105.000			20.873			-3.479
49204.000			20.871			-3.478
49304.000			20.870			-3.478
49405.000			20.869			-3.478
49504.000			20.868			-3.478
49603.000			20.867			-3.478
49705.000			20.865			-3.478
49804.000			20.864			-3.477
49904.000			20.864			-3.477
50005.000			20.862			-3.477
50104.000			20.862			-3.477
50204.000			20.861			-3.477
50304.000			20.859			-3.476
50404.000			20.858			-3.476
50504.000			20.858			-3.476
50604.000			20.857			-3.476
50704.000			20.853			-3.476
50803.000			20.852			-3.475
50904.000			20.851			-3.475
51004.000			20.850			-3.475
51105.000			20.849			-3.475
51204.000			20.847			-3.475
51304.000			20.847			-3.475
51405.000			20.846			-3.474
51503.000			20.846			-3.474
51604.000			20.844			-3.474
51705.000			20.843			-3.474
51804.000			20.842			-3.474
51904.000			20.840			-3.473
52005.000			20.839			-3.473
52104.000			20.839			-3.473
52203.000			20.837			-3.473
52305.000			20.836			-3.473
52404.000			20.835			-3.472
52504.000			20.833			-3.472
52605.000			20.832			-3.472
52704.000			20.832			-3.472
52804.000			20.831			-3.472
52904.000			20.828			-3.471
53004.000			20.828			-3.471
53104.000			20.828			-3.471
53205.000			20.826			-3.471
53304.000			20.824			-3.471
53403.000			20.823			-3.470
53505.000			20.822			-3.470
53604.000			20.821			-3.470
53704.000			20.821			-3.470
53805.000			20.820			-3.470
53904.000			20.819			-3.470
54005.000			20.818			-3.470
54103.000			20.817			-3.470
54204.000			20.816			-3.469
54305.000			20.815			-3.469
54404.000			20.814			-3.469
54504.000			20.813			-3.469
54605.000			20.812			-3.469
54704.000			20.811			-3.468
54803.000			20.810			-3.468
54905.000			20.809			-3.468
55004.000			20.807			-3.468
55104.000			20.805			-3.468
55205.000			20.806			-3.468
55304.000			20.803			-3.467
55404.000			20.801			-3.467
55505.000			20.801			-3.467
55604.000			20.800			-3.467
55704.000			20.797			-3.466
55805.000			20.796			-3.466
55904.000			20.795			-3.466
56003.000			20.794			-3.466
56105.000			20.793			-3.465
56204.000			20.792			-3.465
56304.000			20.790			-3.465
56405.000			20.789			-3.465
56504.000			20.788			-3.465
56604.000			20.787			-3.465
56704.000			20.787			-3.464
56804.000			20.785			-3.464
56904.000			20.785			-3.464
57004.000			20.784			-3.464
57104.000			20.782			-3.464
57205.000			20.781			-3.463
57304.000			20.780			-3.463
57403.000			20.779			-3.463
57505.000			20.778			-3.463
57604.000			20.777			-3.463
57704.000			20.775			-3.463
57805.000			20.775			-3.462
57904.000			20.774			-3.462
58004.000			20.772			-3.462
58104.000			20.772			-3.462
58204.000			20.771			-3.462
58304.000			20.770			-3.462
58405.000			20.769			-3.461
58504.000			20.768			-3.461
58604.000			20.767			-3.461
58705.000			20.765			-3.461
58803.000			20.764			-3.461
58904.000			20.763			-3.461
59005.000			20.762			-3.460
59104.000			20.762			-3.460
59204.000			20.761			-3.460
59305.000			20.760			-3.460
59404.000			20.758			-3.460
59503.000			20.757			-3.460
59605.000			20.757			-3.459
59704.000			20.755			-3.459
59804.000			20.754			-3.459
59905.000			20.751			-3.459
60004.000			20.750			-3.458
60104.000			20.751			-3.458
60203.000			20.749			-3.458
60304.000			20.748			-3.458
60405.000			20.746			-3.458
60504.000			20.745			-3.458
60604.000			20.744			-3.457
60705.000			20.744			-3.457
60804.000			20.743			-3.457
60903.000			20.742			-3.457
61005.000			20.742			-3.457
61104.000			20.741			-3.457
61204.000			20.740			-3.457
61305.000			20.740			-3.457
61403.000			20.738			-3.456
61504.000			20.738			-3.456
61605.000			20.735			-3.456
61704.000			20.734			-3.456
61804.000			20.733			-3.455
61905.000			20.732			-3.455
62004.000			20.731			-3.455
62103.000			20.731			-3.455
62205.000			20.729			-3.455
62304.000			20.727			-3.455
62404.000			20.727			-3.454
62505.000			20.726			-3.454
62604.000			20.726			-3.454
62704.000			20.725			-3.454
62804.000			20.724			-3.454
62904.000			20.722			-3.454
63004.000			20.721			-3.454
63105.000			20.721			-3.454
63204.000			20.720			-3.453
63303.000			20.719			-3.453
63405.000			20.717			-3.453
63504.000			20.716			-3.453
63605.000			20.715			-3.453
63704.000			20.716			-3.453
63804.000			20.714			-3.452
63905.000			20.713			-3.452
64003.000			20.712			-3.452
64104.000			20.710			-3.452
64205.000			20.710			-3.452
64304.000			20.710			-3.452
64404.000			20.708			-3.451
64505.000			20.706			-3.451
64604.000			20.706			-3.451
64703.000			20.705			-3.451
64805.000			20.703			-3.450
64904.000			20.702			-3.450
65004.000			20.702			-3.450
65105.000			20.701			-3.450
65204.000			20.700			-3.450
65304.000			20.697			-3.449
65404.000			20.697			-3.449
65504.000			20.697			-3.449
65604.000			20.696			-3.449
65705.000			20.694			-3.449
65804.000			20.693			-3.449
65904.000			20.692			-3.449
66005.000			20.690			-3.448
66103.000			20.690			-3.448
66204.000			20.689			-3.448
66305.000			20.687			-3.448
66404.000			20.687			-3.448
66504.000			20.686			-3.448
66604.000			20.685			-3.447
66704.000			20.683			-3.447
66803.000			20.682			-3.447
66904.000			20.682			-3.447
67004.000			20.681			-3.447
67105.000			20.680			-3.447
67204.000			20.680			-3.447
67304.000			20.679			-3.446
67405.000			20.677			-3.446
67503.000			20.676			-3.446
67604.000			20.675			-3.446
67705.000			20.675			-3.446
67804.000			20.674			-3.446
67904.000			20.673			-3.446
68005.000			20.672			-3.445
68104.000			20.671			-3.445
68203.000			20.670			-3.445
68305.000			20.669			-3.445
68404.000			20.667			-3.445
68504.000			20.666			-3.444
68605.000			20.666			-3.444
68704.000			20.665			-3.444
68804.000			20.664			-3.444
68904.000			20.663			-3.444
69004.000			20.661			-3.444
69104.000			20.661			-3.443
69205.000			20.660			-3.443
69304.000			20.659			-3.443
69404.000			20.658			-3.443
69505.000			20.657			-3.443
69603.000			20.655			-3.442
69704.000			20.654			-3.442
69805.000			20.653			-3.442
69904.000			20.652			-3.442
70005.000			20.652			-3.442
70104.000			20.651			-3.442
70204.000			20.650			-3.442
70304.000			20.649			-3.441
70404.000			20.648			-3.441
70504.000			20.648			-3.441
70605.000			20.647			-3.441
70704.000			20.645			-3.441
70804.000			20.644			-3.441
70905.000			20.644			-3.441
71003.000			20.643			-3.441
71104.000			20.642			-3.440
71205.000			20.640			-3.440
