# Acquired on 20/12/2023 12:49:46 
# SPIDER: Creep_-5mm_07714532B-1
# CREEP MEASUREMENT

# time [ms]		force [N]		stiffness [N/mm]
1.000			14.792			-2.958
101.000			15.976			-3.195
200.000			16.501			-3.300
301.000			16.509			-3.302
400.000			16.452			-3.290
500.000			16.406			-3.281
601.000			16.367			-3.273
701.000			16.334			-3.267
801.000			16.302			-3.260
901.000			16.276			-3.255
1000.000			16.254			-3.251
1100.000			16.210			-3.242
1200.000			16.191			-3.238
1300.000			16.173			-3.235
1402.000			16.156			-3.231
1501.000			16.142			-3.228
1600.000			16.128			-3.226
1701.000			16.114			-3.223
1800.000			16.089			-3.218
1900.000			16.078			-3.216
2001.000			16.066			-3.213
2100.000			16.054			-3.211
2201.000			16.044			-3.209
2302.000			16.034			-3.207
2400.000			16.025			-3.205
2500.000			16.006			-3.201
2601.000			16.000			-3.200
2700.000			15.991			-3.198
2800.000			15.983			-3.197
2901.000			15.975			-3.195
3001.000			15.967			-3.193
3101.000			15.959			-3.192
3201.000			15.953			-3.191
3300.000			15.940			-3.188
3400.000			15.934			-3.187
3501.000			15.928			-3.186
3600.000			15.922			-3.184
3700.000			15.914			-3.183
3802.000			15.908			-3.182
3901.000			15.903			-3.181
4000.000			15.892			-3.178
4101.000			15.886			-3.177
4200.000			15.881			-3.176
4300.000			15.875			-3.175
4400.000			15.870			-3.174
4500.000			15.866			-3.173
4602.000			15.863			-3.173
4701.000			15.852			-3.170
4800.000			15.847			-3.169
4901.000			15.843			-3.169
5000.000			15.838			-3.168
5100.000			15.834			-3.167
5201.000			15.830			-3.166
5301.000			15.827			-3.165
5401.000			15.823			-3.165
5501.000			15.813			-3.163
5600.000			15.809			-3.162
5700.000			15.806			-3.161
5801.000			15.803			-3.161
5900.000			15.799			-3.160
6000.000			15.796			-3.159
6102.000			15.792			-3.158
6201.000			15.785			-3.157
6300.000			15.781			-3.156
6401.000			15.777			-3.155
6500.000			15.774			-3.155
6600.000			15.771			-3.154
6701.000			15.768			-3.154
6800.000			15.765			-3.153
6901.000			15.759			-3.152
7002.000			15.755			-3.151
7100.000			15.752			-3.150
7200.000			15.748			-3.150
7301.000			15.745			-3.149
7400.000			15.743			-3.149
7500.000			15.741			-3.148
7600.000			15.738			-3.148
7701.000			15.732			-3.146
7802.000			15.729			-3.146
7900.000			15.726			-3.145
8000.000			15.724			-3.145
8101.000			15.721			-3.144
8200.000			15.718			-3.144
8300.000			15.716			-3.143
8402.000			15.710			-3.142
8501.000			15.708			-3.142
8600.000			15.707			-3.141
8701.000			15.704			-3.141
8800.000			15.701			-3.140
8900.000			15.699			-3.140
9001.000			15.697			-3.139
9100.000			15.693			-3.139
9201.000			15.690			-3.138
9302.000			15.688			-3.138
9400.000			15.684			-3.137
9500.000			15.682			-3.136
9601.000			15.681			-3.136
9700.000			15.679			-3.136
9800.000			15.676			-3.135
9901.000			15.671			-3.134
10001.000			15.669			-3.134
10101.000			15.667			-3.133
10201.000			15.664			-3.133
10300.000			15.662			-3.132
10400.000			15.660			-3.132
10501.000			15.660			-3.132
10600.000			15.655			-3.131
10700.000			15.652			-3.130
10802.000			15.651			-3.130
10901.000			15.649			-3.130
11001.000			15.647			-3.129
11100.000			15.644			-3.129
11200.000			15.643			-3.129
11301.000			15.642			-3.128
11400.000			15.638			-3.128
11500.000			15.635			-3.127
11602.000			15.634			-3.127
11701.000			15.632			-3.126
11800.000			15.630			-3.126
11901.000			15.627			-3.125
12000.000			15.626			-3.125
12100.000			15.624			-3.125
12201.000			15.623			-3.125
12300.000			15.620			-3.124
12401.000			15.618			-3.124
12502.000			15.616			-3.123
12600.000			15.615			-3.123
12700.000			15.614			-3.123
12801.000			15.610			-3.122
12900.000			15.609			-3.122
13000.000			15.608			-3.122
13101.000			15.606			-3.121
13201.000			15.603			-3.121
13301.000			15.601			-3.120
13401.000			15.601			-3.120
13500.000			15.599			-3.120
13600.000			15.596			-3.119
13701.000			15.595			-3.119
13800.000			15.594			-3.119
13900.000			15.591			-3.118
14002.000			15.589			-3.118
14101.000			15.588			-3.118
14201.000			15.586			-3.117
14300.000			15.584			-3.117
14400.000			15.582			-3.116
14501.000			15.581			-3.116
14600.000			15.580			-3.116
14700.000			15.578			-3.116
14802.000			15.577			-3.115
14901.000			15.576			-3.115
15000.000			15.573			-3.115
15101.000			15.571			-3.114
15200.000			15.569			-3.114
15300.000			15.569			-3.114
15401.000			15.566			-3.113
15500.000			15.565			-3.113
15601.000			15.564			-3.113
15702.000			15.563			-3.113
15800.000			15.560			-3.112
15900.000			15.559			-3.112
16001.000			15.557			-3.111
16100.000			15.555			-3.111
16200.000			15.554			-3.111
16301.000			15.553			-3.111
16401.000			15.552			-3.110
16501.000			15.551			-3.110
16601.000			15.548			-3.110
16700.000			15.547			-3.109
16800.000			15.545			-3.109
16901.000			15.544			-3.109
17000.000			15.543			-3.109
17100.000			15.543			-3.109
17202.000			15.540			-3.108
17301.000			15.538			-3.108
17401.000			15.537			-3.107
17500.000			15.537			-3.107
17600.000			15.534			-3.107
17701.000			15.533			-3.107
17800.000			15.534			-3.107
17900.000			15.531			-3.106
18002.000			15.529			-3.106
18101.000			15.527			-3.105
18200.000			15.527			-3.105
18301.000			15.525			-3.105
18400.000			15.524			-3.105
18500.000			15.523			-3.105
18601.000			15.522			-3.104
18700.000			15.520			-3.104
18801.000			15.520			-3.104
18902.000			15.518			-3.104
19000.000			15.517			-3.103
19100.000			15.517			-3.103
19201.000			15.515			-3.103
19300.000			15.513			-3.103
19400.000			15.512			-3.102
19501.000			15.511			-3.102
19601.000			15.509			-3.102
19701.000			15.509			-3.102
19801.000			15.507			-3.101
19900.000			15.505			-3.101
20000.000			15.505			-3.101
20101.000			15.504			-3.101
20200.000			15.502			-3.100
20300.000			15.501			-3.100
20402.000			15.499			-3.100
20501.000			15.498			-3.100
20601.000			15.498			-3.100
20700.000			15.498			-3.100
20800.000			15.496			-3.099
20901.000			15.493			-3.099
21000.000			15.492			-3.098
21100.000			15.491			-3.098
21202.000			15.490			-3.098
21301.000			15.490			-3.098
21400.000			15.489			-3.098
21501.000			15.489			-3.098
21600.000			15.486			-3.097
21700.000			15.486			-3.097
21801.000			15.485			-3.097
21900.000			15.483			-3.097
22001.000			15.483			-3.097
22102.000			15.481			-3.096
22200.000			15.480			-3.096
22300.000			15.479			-3.096
22401.000			15.477			-3.095
22500.000			15.477			-3.095
22600.000			15.476			-3.095
22701.000			15.475			-3.095
22801.000			15.474			-3.095
22901.000			15.473			-3.095
23001.000			15.472			-3.094
23100.000			15.470			-3.094
23200.000			15.469			-3.094
23301.000			15.469			-3.094
23400.000			15.468			-3.094
23500.000			15.467			-3.093
23602.000			15.466			-3.093
23701.000			15.464			-3.093
23801.000			15.463			-3.093
23900.000			15.463			-3.093
24000.000			15.462			-3.092
24101.000			15.460			-3.092
24200.000			15.459			-3.092
24300.000			15.459			-3.092
24402.000			15.458			-3.092
24501.000			15.457			-3.091
24600.000			15.454			-3.091
24701.000			15.454			-3.091
24800.000			15.454			-3.091
24900.000			15.452			-3.090
25001.000			15.452			-3.090
25100.000			15.451			-3.090
25201.000			15.451			-3.090
25302.000			15.449			-3.090
25400.000			15.448			-3.090
25500.000			15.448			-3.090
25601.000			15.447			-3.089
25700.000			15.446			-3.089
25800.000			15.445			-3.089
25901.000			15.443			-3.089
26001.000			15.443			-3.089
26101.000			15.442			-3.088
26201.000			15.441			-3.088
26300.000			15.440			-3.088
26400.000			15.439			-3.088
26501.000			15.439			-3.088
26600.000			15.439			-3.088
26700.000			15.438			-3.088
26802.000			15.435			-3.087
26901.000			15.435			-3.087
27001.000			15.434			-3.087
27100.000			15.433			-3.087
27200.000			15.433			-3.087
27301.000			15.431			-3.086
27400.000			15.431			-3.086
27500.000			15.428			-3.086
27602.000			15.428			-3.086
27701.000			15.428			-3.086
27800.000			15.427			-3.085
27901.000			15.427			-3.085
28000.000			15.426			-3.085
28100.000			15.424			-3.085
28201.000			15.424			-3.085
28300.000			15.422			-3.084
28401.000			15.420			-3.084
28502.000			15.420			-3.084
28600.000			15.421			-3.084
28700.000			15.420			-3.084
28801.000			15.419			-3.084
28900.000			15.418			-3.084
29000.000			15.417			-3.083
29101.000			15.417			-3.083
29201.000			15.415			-3.083
29301.000			15.414			-3.083
29401.000			15.414			-3.083
29500.000			15.414			-3.083
29600.000			15.413			-3.083
29701.000			15.411			-3.082
29800.000			15.411			-3.082
29900.000			15.410			-3.082
30002.000			15.409			-3.082
30101.000			15.409			-3.082
30201.000			15.408			-3.082
30300.000			15.408			-3.082
30400.000			15.407			-3.081
30501.000			15.406			-3.081
30600.000			15.405			-3.081
30700.000			15.403			-3.081
30802.000			15.403			-3.081
30901.000			15.403			-3.081
31000.000			15.403			-3.081
31101.000			15.401			-3.080
31200.000			15.400			-3.080
31300.000			15.398			-3.080
31401.000			15.398			-3.080
31501.000			15.398			-3.080
31601.000			15.398			-3.080
31701.000			15.397			-3.079
31800.000			15.396			-3.079
31900.000			15.395			-3.079
32001.000			15.395			-3.079
32100.000			15.393			-3.079
32200.000			15.393			-3.079
32302.000			15.392			-3.078
32401.000			15.391			-3.078
32500.000			15.391			-3.078
32601.000			15.391			-3.078
32700.000			15.390			-3.078
32800.000			15.389			-3.078
32901.000			15.389			-3.078
33000.000			15.388			-3.078
33102.000			15.387			-3.077
33201.000			15.385			-3.077
33300.000			15.386			-3.077
33401.000			15.385			-3.077
33500.000			15.384			-3.077
33600.000			15.383			-3.077
33701.000			15.382			-3.076
33800.000			15.381			-3.076
33901.000			15.380			-3.076
34002.000			15.379			-3.076
34100.000			15.381			-3.076
34200.000			15.379			-3.076
34301.000			15.378			-3.076
34400.000			15.377			-3.075
34500.000			15.377			-3.075
34601.000			15.376			-3.075
34701.000			15.375			-3.075
34801.000			15.375			-3.075
34902.000			15.374			-3.075
35000.000			15.372			-3.074
35100.000			15.373			-3.075
35201.000			15.372			-3.074
35300.000			15.371			-3.074
35400.000			15.371			-3.074
35502.000			15.371			-3.074
35601.000			15.369			-3.074
35700.000			15.369			-3.074
35801.000			15.369			-3.074
35900.000			15.367			-3.073
36000.000			15.366			-3.073
36101.000			15.366			-3.073
36200.000			15.365			-3.073
36302.000			15.365			-3.073
36401.000			15.363			-3.073
36501.000			15.364			-3.073
36601.000			15.364			-3.073
36700.000			15.364			-3.073
36800.000			15.363			-3.073
36901.000			15.362			-3.072
37000.000			15.361			-3.072
37100.000			15.359			-3.072
37202.000			15.359			-3.072
37301.000			15.359			-3.072
37400.000			15.357			-3.071
37501.000			15.356			-3.071
37600.000			15.357			-3.071
37700.000			15.356			-3.071
37801.000			15.355			-3.071
37901.000			15.354			-3.071
38001.000			15.354			-3.071
38102.000			15.354			-3.071
38200.000			15.354			-3.071
38300.000			15.353			-3.071
38401.000			15.352			-3.070
38500.000			15.351			-3.070
38600.000			15.351			-3.070
38701.000			15.350			-3.070
38801.000			15.350			-3.070
38901.000			15.348			-3.070
39001.000			15.348			-3.070
39100.000			15.348			-3.070
39200.000			15.348			-3.070
39301.000			15.346			-3.069
39400.000			15.345			-3.069
39500.000			15.345			-3.069
39602.000			15.344			-3.069
39701.000			15.345			-3.069
39801.000			15.344			-3.069
39900.000			15.343			-3.069
40000.000			15.343			-3.069
40101.000			15.343			-3.069
40200.000			15.342			-3.068
40300.000			15.340			-3.068
40402.000			15.339			-3.068
40501.000			15.339			-3.068
40600.000			15.339			-3.068
40701.000			15.339			-3.068
40800.000			15.338			-3.068
40900.000			15.337			-3.067
41001.000			15.336			-3.067
41101.000			15.336			-3.067
41201.000			15.335			-3.067
41302.000			15.334			-3.067
41400.000			15.334			-3.067
41500.000			15.335			-3.067
41601.000			15.334			-3.067
41700.000			15.332			-3.066
41800.000			15.332			-3.066
41902.000			15.331			-3.066
42001.000			15.332			-3.066
42100.000			15.331			-3.066
42201.000			15.330			-3.066
42300.000			15.330			-3.066
42400.000			15.329			-3.066
42501.000			15.328			-3.066
42600.000			15.327			-3.065
42702.000			15.328			-3.066
42801.000			15.327			-3.065
42900.000			15.325			-3.065
43001.000			15.324			-3.065
43100.000			15.325			-3.065
43200.000			15.324			-3.065
43301.000			15.323			-3.065
43400.000			15.323			-3.065
43501.000			15.323			-3.065
43602.000			15.322			-3.064
43700.000			15.322			-3.064
43800.000			15.322			-3.064
43901.000			15.321			-3.064
44000.000			15.321			-3.064
44100.000			15.320			-3.064
44201.000			15.319			-3.064
44301.000			15.318			-3.064
44401.000			15.318			-3.064
44501.000			15.318			-3.064
44600.000			15.316			-3.063
44700.000			15.315			-3.063
44801.000			15.315			-3.063
44900.000			15.315			-3.063
45000.000			15.314			-3.063
45102.000			15.314			-3.063
45201.000			15.313			-3.063
45300.000			15.313			-3.063
45401.000			15.312			-3.062
45500.000			15.311			-3.062
45600.000			15.311			-3.062
45701.000			15.311			-3.062
45801.000			15.310			-3.062
45902.000			15.310			-3.062
46001.000			15.309			-3.062
46100.000			15.308			-3.062
46201.000			15.308			-3.062
46300.000			15.308			-3.062
46400.000			15.307			-3.061
46501.000			15.307			-3.061
46601.000			15.306			-3.061
46701.000			15.304			-3.061
46802.000			15.304			-3.061
46900.000			15.305			-3.061
47000.000			15.305			-3.061
47101.000			15.304			-3.061
47200.000			15.303			-3.061
47300.000			15.303			-3.061
47402.000			15.303			-3.061
47501.000			15.302			-3.060
47600.000			15.301			-3.060
47701.000			15.300			-3.060
47800.000			15.301			-3.060
47900.000			15.299			-3.060
48001.000			15.299			-3.060
48100.000			15.299			-3.060
48201.000			15.298			-3.060
48302.000			15.297			-3.059
48401.000			15.296			-3.059
48500.000			15.297			-3.059
48601.000			15.296			-3.059
48700.000			15.295			-3.059
48800.000			15.295			-3.059
48901.000			15.294			-3.059
49000.000			15.294			-3.059
49102.000			15.294			-3.059
49201.000			15.294			-3.059
49300.000			15.293			-3.059
49401.000			15.293			-3.059
49500.000			15.292			-3.058
49600.000			15.292			-3.058
49701.000			15.291			-3.058
49800.000			15.290			-3.058
49901.000			15.289			-3.058
50002.000			15.288			-3.058
50100.000			15.290			-3.058
50200.000			15.290			-3.058
50301.000			15.288			-3.058
50400.000			15.287			-3.057
50500.000			15.288			-3.058
50601.000			15.288			-3.058
50701.000			15.287			-3.057
50801.000			15.286			-3.057
50901.000			15.286			-3.057
51000.000			15.284			-3.057
51100.000			15.285			-3.057
51201.000			15.285			-3.057
51300.000			15.284			-3.057
51400.000			15.284			-3.057
51502.000			15.283			-3.057
51601.000			15.283			-3.057
51700.000			15.283			-3.057
51801.000			15.281			-3.056
51900.000			15.280			-3.056
52000.000			15.280			-3.056
52101.000			15.280			-3.056
52201.000			15.280			-3.056
52302.000			15.279			-3.056
52401.000			15.280			-3.056
52500.000			15.278			-3.056
52601.000			15.278			-3.056
52700.000			15.277			-3.055
52800.000			15.277			-3.055
52901.000			15.277			-3.055
53001.000			15.277			-3.055
53101.000			15.277			-3.055
53202.000			15.276			-3.055
53300.000			15.275			-3.055
53400.000			15.274			-3.055
53501.000			15.274			-3.055
53600.000			15.274			-3.055
53700.000			15.273			-3.055
53802.000			15.273			-3.055
53901.000			15.273			-3.055
54001.000			15.271			-3.054
54101.000			15.271			-3.054
54200.000			15.271			-3.054
54300.000			15.271			-3.054
54401.000			15.271			-3.054
54500.000			15.270			-3.054
54600.000			15.269			-3.054
54702.000			15.269			-3.054
54801.000			15.269			-3.054
54900.000			15.269			-3.054
55001.000			15.268			-3.054
55100.000			15.268			-3.054
55200.000			15.268			-3.054
55301.000			15.267			-3.053
55401.000			15.267			-3.053
55502.000			15.266			-3.053
55601.000			15.264			-3.053
55700.000			15.265			-3.053
55801.000			15.264			-3.053
55900.000			15.263			-3.053
56000.000			15.264			-3.053
56101.000			15.263			-3.053
56201.000			15.262			-3.052
56301.000			15.263			-3.053
56401.000			15.262			-3.052
56500.000			15.262			-3.052
56600.000			15.262			-3.052
56701.000			15.261			-3.052
56800.000			15.261			-3.052
56900.000			15.260			-3.052
57002.000			15.259			-3.052
57101.000			15.259			-3.052
57201.000			15.259			-3.052
57301.000			15.259			-3.052
57400.000			15.259			-3.052
57500.000			15.258			-3.052
57601.000			15.258			-3.052
57700.000			15.256			-3.051
57800.000			15.255			-3.051
57902.000			15.256			-3.051
58001.000			15.255			-3.051
58100.000			15.255			-3.051
58201.000			15.255			-3.051
58300.000			15.255			-3.051
58400.000			15.254			-3.051
58501.000			15.254			-3.051
58600.000			15.253			-3.051
58702.000			15.254			-3.051
58801.000			15.252			-3.050
58900.000			15.252			-3.050
59001.000			15.251			-3.050
59100.000			15.251			-3.050
59200.000			15.251			-3.050
59301.000			15.251			-3.050
59400.000			15.250			-3.050
59501.000			15.250			-3.050
59602.000			15.249			-3.050
59700.000			15.250			-3.050
59800.000			15.248			-3.050
59901.000			15.247			-3.049
60000.000			15.247			-3.049
60100.000			15.247			-3.049
60201.000			15.248			-3.050
60301.000			15.247			-3.049
60401.000			15.246			-3.049
60501.000			15.245			-3.049
60600.000			15.244			-3.049
60700.000			15.244			-3.049
60801.000			15.245			-3.049
60900.000			15.244			-3.049
61000.000			15.244			-3.049
61102.000			15.243			-3.049
61201.000			15.243			-3.049
61300.000			15.243			-3.049
61401.000			15.242			-3.048
61500.000			15.241			-3.048
61600.000			15.241			-3.048
61701.000			15.241			-3.048
61801.000			15.241			-3.048
61902.000			15.240			-3.048
62001.000			15.240			-3.048
62100.000			15.239			-3.048
62201.000			15.239			-3.048
62300.000			15.239			-3.048
62400.000			15.239			-3.048
62501.000			15.239			-3.048
62601.000			15.238			-3.048
62701.000			15.238			-3.048
62801.000			15.236			-3.047
62900.000			15.236			-3.047
63000.000			15.236			-3.047
63101.000			15.235			-3.047
63200.000			15.235			-3.047
63300.000			15.234			-3.047
63402.000			15.234			-3.047
63501.000			15.234			-3.047
63600.000			15.234			-3.047
63701.000			15.233			-3.047
63800.000			15.233			-3.047
63900.000			15.233			-3.047
64001.000			15.233			-3.047
64100.000			15.233			-3.047
64201.000			15.232			-3.046
64302.000			15.232			-3.046
64400.000			15.232			-3.046
64500.000			15.231			-3.046
64601.000			15.230			-3.046
64700.000			15.229			-3.046
64800.000			15.228			-3.046
64901.000			15.229			-3.046
65001.000			15.229			-3.046
65102.000			15.230			-3.046
65200.000			15.229			-3.046
65300.000			15.228			-3.046
65401.000			15.228			-3.046
65500.000			15.228			-3.046
65600.000			15.227			-3.045
65701.000			15.227			-3.045
65801.000			15.226			-3.045
65901.000			15.226			-3.045
66001.000			15.226			-3.045
66100.000			15.226			-3.045
66200.000			15.225			-3.045
66301.000			15.225			-3.045
66400.000			15.224			-3.045
66500.000			15.223			-3.045
66602.000			15.222			-3.044
66701.000			15.222			-3.044
66800.000			15.222			-3.044
66901.000			15.222			-3.044
67000.000			15.222			-3.044
67100.000			15.222			-3.044
67201.000			15.221			-3.044
67300.000			15.221			-3.044
67401.000			15.221			-3.044
67502.000			15.221			-3.044
67600.000			15.219			-3.044
67700.000			15.219			-3.044
67801.000			15.218			-3.044
67900.000			15.219			-3.044
68000.000			15.219			-3.044
68101.000			15.218			-3.044
68201.000			15.218			-3.044
68302.000			15.217			-3.043
68400.000			15.216			-3.043
68500.000			15.217			-3.043
68601.000			15.217			-3.043
68700.000			15.217			-3.043
68800.000			15.216			-3.043
68901.000			15.215			-3.043
69001.000			15.214			-3.043
69101.000			15.215			-3.043
69201.000			15.214			-3.043
69300.000			15.214			-3.043
69400.000			15.214			-3.043
69501.000			15.214			-3.043
69600.000			15.212			-3.042
69700.000			15.211			-3.042
69802.000			15.212			-3.042
69901.000			15.212			-3.042
70001.000			15.211			-3.042
70101.000			15.211			-3.042
70200.000			15.210			-3.042
70300.000			15.209			-3.042
70401.000			15.210			-3.042
70500.000			15.209			-3.042
70601.000			15.209			-3.042
70702.000			15.209			-3.042
70801.000			15.208			-3.042
70900.000			15.209			-3.042
71001.000			15.208			-3.042
71100.000			15.207			-3.041
71200.000			15.207			-3.041
