# Acquired on 26/01/2024 11:23:36 
# SPIDER: Creep_4mm_HM077x145x38AA-2
# CREEP MEASUREMENT

# time [ms]		force [N]		stiffness [N/mm]
0.000			-18.844			-4.711
104.000			-19.826			-4.957
205.000			-20.121			-5.030
304.000			-20.073			-5.018
404.000			-19.969			-4.992
505.000			-19.936			-4.984
604.000			-19.908			-4.977
705.000			-19.883			-4.971
803.000			-19.860			-4.965
904.000			-19.838			-4.960
1005.000			-19.819			-4.955
1104.000			-19.785			-4.946
1204.000			-19.770			-4.942
1304.000			-19.755			-4.939
1404.000			-19.741			-4.935
1503.000			-19.729			-4.932
1605.000			-19.717			-4.929
1704.000			-19.704			-4.926
1804.000			-19.692			-4.923
1905.000			-19.671			-4.918
2003.000			-19.661			-4.915
2104.000			-19.652			-4.913
2205.000			-19.644			-4.911
2304.000			-19.634			-4.909
2404.000			-19.625			-4.906
2505.000			-19.617			-4.904
2604.000			-19.601			-4.900
2703.000			-19.593			-4.898
2805.000			-19.586			-4.897
2904.000			-19.577			-4.894
3004.000			-19.571			-4.893
3105.000			-19.565			-4.891
3203.000			-19.557			-4.889
3304.000			-19.544			-4.886
3405.000			-19.538			-4.885
3504.000			-19.533			-4.883
3604.000			-19.528			-4.882
3704.000			-19.521			-4.880
3804.000			-19.515			-4.879
3903.000			-19.509			-4.877
4004.000			-19.497			-4.874
4104.000			-19.492			-4.873
4205.000			-19.487			-4.872
4304.000			-19.483			-4.871
4404.000			-19.477			-4.869
4505.000			-19.473			-4.868
4603.000			-19.468			-4.867
4704.000			-19.464			-4.866
4805.000			-19.454			-4.864
4904.000			-19.449			-4.862
5004.000			-19.445			-4.861
5104.000			-19.441			-4.860
5204.000			-19.437			-4.859
5304.000			-19.433			-4.858
5405.000			-19.429			-4.857
5504.000			-19.421			-4.855
5604.000			-19.416			-4.854
5705.000			-19.412			-4.853
5803.000			-19.408			-4.852
5904.000			-19.406			-4.851
6005.000			-19.402			-4.851
6104.000			-19.398			-4.850
6204.000			-19.391			-4.848
6305.000			-19.386			-4.847
6404.000			-19.384			-4.846
6503.000			-19.381			-4.845
6605.000			-19.377			-4.844
6704.000			-19.372			-4.843
6804.000			-19.369			-4.842
6905.000			-19.362			-4.841
7003.000			-19.359			-4.840
7105.000			-19.355			-4.839
7204.000			-19.352			-4.838
7304.000			-19.350			-4.837
7405.000			-19.347			-4.837
7504.000			-19.344			-4.836
7604.000			-19.342			-4.836
7704.000			-19.335			-4.834
7804.000			-19.332			-4.833
7904.000			-19.329			-4.832
8005.000			-19.326			-4.831
8104.000			-19.322			-4.831
8204.000			-19.319			-4.830
8305.000			-19.316			-4.829
8403.000			-19.311			-4.828
8504.000			-19.309			-4.827
8605.000			-19.307			-4.827
8704.000			-19.304			-4.826
8804.000			-19.301			-4.825
8904.000			-19.299			-4.825
9004.000			-19.296			-4.824
9103.000			-19.292			-4.823
9205.000			-19.289			-4.822
9304.000			-19.286			-4.821
9404.000			-19.283			-4.821
9505.000			-19.281			-4.820
9603.000			-19.278			-4.820
9704.000			-19.276			-4.819
9805.000			-19.274			-4.818
9904.000			-19.270			-4.817
10004.000			-19.266			-4.817
10104.000			-19.263			-4.816
10204.000			-19.263			-4.816
10303.000			-19.260			-4.815
10404.000			-19.257			-4.814
10504.000			-19.256			-4.814
10605.000			-19.251			-4.813
10704.000			-19.249			-4.812
10804.000			-19.245			-4.811
10905.000			-19.243			-4.811
11003.000			-19.242			-4.811
11104.000			-19.240			-4.810
11205.000			-19.238			-4.810
11304.000			-19.233			-4.808
11404.000			-19.232			-4.808
11504.000			-19.229			-4.807
11604.000			-19.227			-4.807
11703.000			-19.225			-4.806
11805.000			-19.223			-4.806
11904.000			-19.222			-4.805
12004.000			-19.219			-4.805
12105.000			-19.215			-4.804
12203.000			-19.214			-4.803
12304.000			-19.213			-4.803
12405.000			-19.211			-4.803
12504.000			-19.209			-4.802
12604.000			-19.207			-4.802
12705.000			-19.204			-4.801
12804.000			-19.200			-4.800
12903.000			-19.198			-4.799
13005.000			-19.197			-4.799
13104.000			-19.195			-4.799
13204.000			-19.193			-4.798
13305.000			-19.192			-4.798
13404.000			-19.190			-4.797
13505.000			-19.187			-4.797
13603.000			-19.184			-4.796
13704.000			-19.183			-4.796
13805.000			-19.181			-4.795
13904.000			-19.179			-4.795
14004.000			-19.177			-4.794
14105.000			-19.175			-4.794
14204.000			-19.172			-4.793
14303.000			-19.171			-4.793
14405.000			-19.168			-4.792
14504.000			-19.166			-4.791
14604.000			-19.165			-4.791
14705.000			-19.164			-4.791
14804.000			-19.162			-4.790
14904.000			-19.161			-4.790
15004.000			-19.157			-4.789
15104.000			-19.155			-4.789
15204.000			-19.154			-4.788
15305.000			-19.152			-4.788
15404.000			-19.150			-4.788
15503.000			-19.148			-4.787
15605.000			-19.147			-4.787
15704.000			-19.144			-4.786
15804.000			-19.143			-4.786
15905.000			-19.142			-4.785
16004.000			-19.141			-4.785
16104.000			-19.140			-4.785
16204.000			-19.137			-4.784
16304.000			-19.136			-4.784
16404.000			-19.132			-4.783
16504.000			-19.130			-4.782
16604.000			-19.128			-4.782
16705.000			-19.128			-4.782
16804.000			-19.128			-4.782
16903.000			-19.126			-4.782
17005.000			-19.123			-4.781
17104.000			-19.122			-4.780
17204.000			-19.120			-4.780
17305.000			-19.119			-4.780
17404.000			-19.116			-4.779
17504.000			-19.115			-4.779
17604.000			-19.113			-4.778
17704.000			-19.112			-4.778
17804.000			-19.111			-4.778
17905.000			-19.109			-4.777
18004.000			-19.106			-4.777
18104.000			-19.105			-4.776
18205.000			-19.104			-4.776
18303.000			-19.104			-4.776
18404.000			-19.103			-4.776
18505.000			-19.101			-4.775
18604.000			-19.098			-4.774
18704.000			-19.096			-4.774
18804.000			-19.094			-4.774
18904.000			-19.094			-4.773
19004.000			-19.091			-4.773
19105.000			-19.090			-4.773
19204.000			-19.089			-4.772
19304.000			-19.086			-4.772
19405.000			-19.085			-4.771
19503.000			-19.084			-4.771
19604.000			-19.083			-4.771
19705.000			-19.082			-4.771
19804.000			-19.081			-4.770
19905.000			-19.080			-4.770
20004.000			-19.079			-4.770
20104.000			-19.076			-4.769
20204.000			-19.075			-4.769
20304.000			-19.073			-4.768
20404.000			-19.072			-4.768
20505.000			-19.071			-4.768
20604.000			-19.070			-4.767
20704.000			-19.068			-4.767
20805.000			-19.066			-4.767
20903.000			-19.065			-4.766
21004.000			-19.065			-4.766
21105.000			-19.064			-4.766
21204.000			-19.062			-4.765
21304.000			-19.060			-4.765
21405.000			-19.060			-4.765
21504.000			-19.058			-4.764
21603.000			-19.056			-4.764
21705.000			-19.054			-4.764
21804.000			-19.054			-4.763
21904.000			-19.052			-4.763
22005.000			-19.052			-4.763
22103.000			-19.051			-4.763
22204.000			-19.049			-4.762
22305.000			-19.047			-4.762
22404.000			-19.047			-4.762
22504.000			-19.046			-4.761
22605.000			-19.044			-4.761
22704.000			-19.042			-4.761
22803.000			-19.042			-4.760
22905.000			-19.040			-4.760
23004.000			-19.037			-4.759
23105.000			-19.036			-4.759
23204.000			-19.035			-4.759
23304.000			-19.034			-4.758
23405.000			-19.033			-4.758
23503.000			-19.033			-4.758
23604.000			-19.032			-4.758
23705.000			-19.030			-4.757
23804.000			-19.029			-4.757
23904.000			-19.028			-4.757
24005.000			-19.027			-4.757
24104.000			-19.025			-4.756
24203.000			-19.024			-4.756
24305.000			-19.023			-4.756
24404.000			-19.021			-4.755
24504.000			-19.020			-4.755
24605.000			-19.019			-4.755
24704.000			-19.017			-4.754
24804.000			-19.016			-4.754
24904.000			-19.016			-4.754
25004.000			-19.016			-4.754
25104.000			-19.014			-4.754
25205.000			-19.012			-4.753
25304.000			-19.011			-4.753
25403.000			-19.011			-4.753
25505.000			-19.010			-4.752
25604.000			-19.008			-4.752
25704.000			-19.007			-4.752
25805.000			-19.006			-4.752
25904.000			-19.004			-4.751
26004.000			-19.002			-4.751
26103.000			-19.001			-4.750
26204.000			-19.001			-4.750
26305.000			-19.000			-4.750
26404.000			-19.000			-4.750
26504.000			-19.000			-4.750
26605.000			-18.997			-4.749
26704.000			-18.996			-4.749
26803.000			-18.995			-4.749
26905.000			-18.994			-4.749
27004.000			-18.994			-4.748
27104.000			-18.992			-4.748
27205.000			-18.991			-4.748
27304.000			-18.990			-4.747
27404.000			-18.988			-4.747
27504.000			-18.986			-4.747
27604.000			-18.986			-4.746
27704.000			-18.986			-4.747
27805.000			-18.985			-4.746
27904.000			-18.984			-4.746
28004.000			-18.984			-4.746
28105.000			-18.981			-4.745
28203.000			-18.980			-4.745
28304.000			-18.978			-4.745
28405.000			-18.978			-4.744
28504.000			-18.977			-4.744
28604.000			-18.976			-4.744
28705.000			-18.975			-4.744
28804.000			-18.973			-4.743
28903.000			-18.973			-4.743
29005.000			-18.972			-4.743
29104.000			-18.972			-4.743
29204.000			-18.970			-4.743
29305.000			-18.968			-4.742
29404.000			-18.968			-4.742
29505.000			-18.967			-4.742
29604.000			-18.966			-4.741
29704.000			-18.964			-4.741
29804.000			-18.964			-4.741
29904.000			-18.964			-4.741
30004.000			-18.963			-4.741
30105.000			-18.962			-4.740
30204.000			-18.961			-4.740
30304.000			-18.960			-4.740
30405.000			-18.959			-4.740
30503.000			-18.958			-4.739
30604.000			-18.956			-4.739
30705.000			-18.955			-4.739
30804.000			-18.955			-4.739
30904.000			-18.954			-4.738
31004.000			-18.952			-4.738
31104.000			-18.951			-4.738
31203.000			-18.951			-4.738
31305.000			-18.949			-4.737
31404.000			-18.948			-4.737
31504.000			-18.948			-4.737
31605.000			-18.948			-4.737
31704.000			-18.947			-4.737
31804.000			-18.945			-4.736
31904.000			-18.945			-4.736
32004.000			-18.944			-4.736
32104.000			-18.942			-4.736
32205.000			-18.942			-4.735
32304.000			-18.941			-4.735
32403.000			-18.941			-4.735
32505.000			-18.939			-4.735
32604.000			-18.938			-4.734
32705.000			-18.937			-4.734
32804.000			-18.936			-4.734
32904.000			-18.936			-4.734
33005.000			-18.935			-4.734
33104.000			-18.933			-4.733
33204.000			-18.931			-4.733
33304.000			-18.931			-4.733
33404.000			-18.931			-4.733
33504.000			-18.930			-4.733
33605.000			-18.929			-4.732
33704.000			-18.928			-4.732
33804.000			-18.928			-4.732
33905.000			-18.927			-4.732
34003.000			-18.926			-4.731
34104.000			-18.924			-4.731
34205.000			-18.924			-4.731
34304.000			-18.924			-4.731
34404.000			-18.924			-4.731
34505.000			-18.923			-4.731
34604.000			-18.922			-4.730
34703.000			-18.920			-4.730
34805.000			-18.919			-4.730
34904.000			-18.919			-4.730
35004.000			-18.918			-4.729
35105.000			-18.917			-4.729
35204.000			-18.916			-4.729
35304.000			-18.915			-4.729
35404.000			-18.914			-4.729
35504.000			-18.914			-4.729
35604.000			-18.913			-4.728
35704.000			-18.912			-4.728
35804.000			-18.912			-4.728
35905.000			-18.911			-4.728
36004.000			-18.910			-4.728
36103.000			-18.908			-4.727
36205.000			-18.908			-4.727
36304.000			-18.907			-4.727
36404.000			-18.906			-4.726
36505.000			-18.906			-4.726
36604.000			-18.905			-4.726
36704.000			-18.904			-4.726
36804.000			-18.902			-4.726
36904.000			-18.902			-4.725
37004.000			-18.901			-4.725
37105.000			-18.900			-4.725
37204.000			-18.899			-4.725
37304.000			-18.898			-4.725
37405.000			-18.898			-4.724
37503.000			-18.898			-4.724
37604.000			-18.896			-4.724
37705.000			-18.895			-4.724
37804.000			-18.894			-4.724
37904.000			-18.894			-4.723
38005.000			-18.893			-4.723
38104.000			-18.892			-4.723
38203.000			-18.892			-4.723
38305.000			-18.891			-4.723
38404.000			-18.890			-4.722
38504.000			-18.889			-4.722
38605.000			-18.889			-4.722
38704.000			-18.888			-4.722
38804.000			-18.886			-4.722
38903.000			-18.886			-4.721
39004.000			-18.885			-4.721
39105.000			-18.885			-4.721
39204.000			-18.884			-4.721
39304.000			-18.882			-4.721
39405.000			-18.883			-4.721
39504.000			-18.883			-4.721
39603.000			-18.880			-4.720
39705.000			-18.880			-4.720
39804.000			-18.879			-4.720
39904.000			-18.879			-4.720
40005.000			-18.878			-4.719
40104.000			-18.877			-4.719
40204.000			-18.877			-4.719
40304.000			-18.876			-4.719
40404.000			-18.875			-4.719
40504.000			-18.874			-4.719
40605.000			-18.873			-4.718
40704.000			-18.873			-4.718
40804.000			-18.872			-4.718
40905.000			-18.871			-4.718
41003.000			-18.870			-4.717
41104.000			-18.870			-4.717
41205.000			-18.869			-4.717
41304.000			-18.867			-4.717
41404.000			-18.867			-4.717
41505.000			-18.867			-4.717
41604.000			-18.864			-4.716
41703.000			-18.864			-4.716
41805.000			-18.865			-4.716
41904.000			-18.864			-4.716
42004.000			-18.864			-4.716
42105.000			-18.863			-4.716
42204.000			-18.862			-4.715
42305.000			-18.861			-4.715
42403.000			-18.860			-4.715
42504.000			-18.859			-4.715
42605.000			-18.859			-4.715
42704.000			-18.859			-4.715
42804.000			-18.859			-4.715
42905.000			-18.857			-4.714
43004.000			-18.856			-4.714
43103.000			-18.856			-4.714
43205.000			-18.856			-4.714
43304.000			-18.854			-4.714
43404.000			-18.853			-4.713
43505.000			-18.854			-4.713
43604.000			-18.853			-4.713
43704.000			-18.852			-4.713
43804.000			-18.851			-4.713
43904.000			-18.850			-4.712
44004.000			-18.849			-4.712
44105.000			-18.848			-4.712
44204.000			-18.847			-4.712
44304.000			-18.847			-4.712
44405.000			-18.846			-4.712
44503.000			-18.845			-4.711
44604.000			-18.844			-4.711
44705.000			-18.843			-4.711
44804.000			-18.843			-4.711
44904.000			-18.841			-4.710
45005.000			-18.841			-4.710
45104.000			-18.841			-4.710
45203.000			-18.840			-4.710
45305.000			-18.839			-4.710
45404.000			-18.839			-4.710
45505.000			-18.838			-4.710
45604.000			-18.836			-4.709
45704.000			-18.835			-4.709
45805.000			-18.834			-4.709
45903.000			-18.834			-4.709
46004.000			-18.834			-4.708
46105.000			-18.833			-4.708
46204.000			-18.833			-4.708
46304.000			-18.831			-4.708
46405.000			-18.831			-4.708
46504.000			-18.830			-4.707
46603.000			-18.829			-4.707
46705.000			-18.829			-4.707
46804.000			-18.828			-4.707
46904.000			-18.829			-4.707
47005.000			-18.826			-4.707
47104.000			-18.826			-4.707
47204.000			-18.827			-4.707
47304.000			-18.826			-4.707
47404.000			-18.825			-4.706
47504.000			-18.824			-4.706
47605.000			-18.823			-4.706
47704.000			-18.823			-4.706
47804.000			-18.820			-4.705
47905.000			-18.821			-4.705
48003.000			-18.821			-4.705
48104.000			-18.820			-4.705
48205.000			-18.820			-4.705
48304.000			-18.821			-4.705
48404.000			-18.819			-4.705
48504.000			-18.818			-4.705
48604.000			-18.817			-4.704
48703.000			-18.817			-4.704
48804.000			-18.816			-4.704
48904.000			-18.816			-4.704
49005.000			-18.816			-4.704
49104.000			-18.816			-4.704
49204.000			-18.814			-4.703
49305.000			-18.813			-4.703
49403.000			-18.812			-4.703
49504.000			-18.813			-4.703
49605.000			-18.812			-4.703
49704.000			-18.812			-4.703
49804.000			-18.812			-4.703
49905.000			-18.811			-4.703
50004.000			-18.810			-4.703
50103.000			-18.810			-4.702
50205.000			-18.809			-4.702
50304.000			-18.809			-4.702
50404.000			-18.808			-4.702
50505.000			-18.808			-4.702
50604.000			-18.807			-4.702
50704.000			-18.807			-4.702
50804.000			-18.806			-4.702
50904.000			-18.805			-4.701
51004.000			-18.804			-4.701
51105.000			-18.804			-4.701
51204.000			-18.803			-4.701
51304.000			-18.802			-4.700
51405.000			-18.802			-4.700
51503.000			-18.801			-4.700
51604.000			-18.802			-4.701
51705.000			-18.801			-4.700
51804.000			-18.800			-4.700
51905.000			-18.799			-4.700
52004.000			-18.797			-4.699
52104.000			-18.796			-4.699
52204.000			-18.795			-4.699
52304.000			-18.794			-4.698
52404.000			-18.794			-4.699
52505.000			-18.795			-4.699
52604.000			-18.795			-4.699
52704.000			-18.793			-4.698
52805.000			-18.792			-4.698
52903.000			-18.791			-4.698
53004.000			-18.790			-4.697
53105.000			-18.789			-4.697
53204.000			-18.789			-4.697
53304.000			-18.788			-4.697
53405.000			-18.787			-4.697
53504.000			-18.787			-4.697
53603.000			-18.786			-4.697
53705.000			-18.786			-4.697
53804.000			-18.785			-4.696
53904.000			-18.785			-4.696
54005.000			-18.784			-4.696
54104.000			-18.783			-4.696
54204.000			-18.783			-4.696
54304.000			-18.781			-4.695
54404.000			-18.781			-4.695
54504.000			-18.782			-4.695
54605.000			-18.781			-4.695
54704.000			-18.781			-4.695
54804.000			-18.780			-4.695
54905.000			-18.779			-4.695
55003.000			-18.778			-4.695
55105.000			-18.777			-4.694
55204.000			-18.778			-4.694
55304.000			-18.778			-4.695
55405.000			-18.778			-4.694
55504.000			-18.777			-4.694
55604.000			-18.776			-4.694
55704.000			-18.775			-4.694
55804.000			-18.775			-4.694
55904.000			-18.775			-4.694
56005.000			-18.775			-4.694
56104.000			-18.774			-4.694
56204.000			-18.774			-4.693
56305.000			-18.773			-4.693
56403.000			-18.773			-4.693
56504.000			-18.772			-4.693
56605.000			-18.771			-4.693
56704.000			-18.772			-4.693
56804.000			-18.771			-4.693
56905.000			-18.770			-4.692
57004.000			-18.769			-4.692
57103.000			-18.770			-4.692
57205.000			-18.769			-4.692
57304.000			-18.769			-4.692
57404.000			-18.768			-4.692
57505.000			-18.766			-4.692
57604.000			-18.767			-4.692
57704.000			-18.767			-4.692
57804.000			-18.766			-4.692
57904.000			-18.766			-4.692
58004.000			-18.765			-4.691
58104.000			-18.765			-4.691
58204.000			-18.763			-4.691
58305.000			-18.763			-4.691
58404.000			-18.763			-4.691
58503.000			-18.764			-4.691
58605.000			-18.763			-4.691
58704.000			-18.762			-4.690
58804.000			-18.761			-4.690
58905.000			-18.761			-4.690
59004.000			-18.760			-4.690
59104.000			-18.760			-4.690
59204.000			-18.759			-4.690
59304.000			-18.759			-4.690
59404.000			-18.758			-4.689
59505.000			-18.758			-4.689
59604.000			-18.758			-4.690
59704.000			-18.758			-4.690
59805.000			-18.757			-4.689
59903.000			-18.757			-4.689
60004.000			-18.756			-4.689
60105.000			-18.757			-4.689
60204.000			-18.754			-4.688
60304.000			-18.754			-4.689
60405.000			-18.754			-4.689
60504.000			-18.754			-4.688
60603.000			-18.752			-4.688
60705.000			-18.753			-4.688
60804.000			-18.752			-4.688
60904.000			-18.751			-4.688
61005.000			-18.751			-4.688
61104.000			-18.750			-4.688
61204.000			-18.751			-4.688
61303.000			-18.750			-4.688
61404.000			-18.749			-4.687
61505.000			-18.748			-4.687
61604.000			-18.748			-4.687
61704.000			-18.748			-4.687
61805.000			-18.749			-4.687
61904.000			-18.747			-4.687
62003.000			-18.745			-4.686
62105.000			-18.746			-4.687
62204.000			-18.746			-4.686
62304.000			-18.745			-4.686
62405.000			-18.745			-4.686
62504.000			-18.743			-4.686
62604.000			-18.743			-4.686
62704.000			-18.742			-4.686
62804.000			-18.741			-4.685
62904.000			-18.741			-4.685
63005.000			-18.740			-4.685
63104.000			-18.741			-4.685
63204.000			-18.741			-4.685
63305.000			-18.741			-4.685
63403.000			-18.739			-4.685
63504.000			-18.739			-4.685
63605.000			-18.739			-4.685
63704.000			-18.738			-4.685
63804.000			-18.738			-4.685
63905.000			-18.737			-4.684
64004.000			-18.736			-4.684
64103.000			-18.736			-4.684
64205.000			-18.735			-4.684
64304.000			-18.735			-4.684
64404.000			-18.735			-4.684
64505.000			-18.733			-4.683
64604.000			-18.733			-4.683
64705.000			-18.732			-4.683
64803.000			-18.733			-4.683
64904.000			-18.732			-4.683
65005.000			-18.731			-4.683
65104.000			-18.731			-4.683
65204.000			-18.731			-4.683
65305.000			-18.730			-4.683
65404.000			-18.730			-4.682
65503.000			-18.730			-4.682
65605.000			-18.729			-4.682
65704.000			-18.728			-4.682
65804.000			-18.728			-4.682
65905.000			-18.728			-4.682
66004.000			-18.727			-4.682
66104.000			-18.726			-4.682
66204.000			-18.726			-4.681
66304.000			-18.726			-4.681
66404.000			-18.725			-4.681
66505.000			-18.725			-4.681
66604.000			-18.724			-4.681
66704.000			-18.725			-4.681
66805.000			-18.724			-4.681
66903.000			-18.723			-4.681
67004.000			-18.723			-4.681
67105.000			-18.723			-4.681
67204.000			-18.722			-4.681
67304.000			-18.721			-4.680
67405.000			-18.720			-4.680
67504.000			-18.719			-4.680
67603.000			-18.718			-4.680
67705.000			-18.718			-4.680
67804.000			-18.718			-4.680
67905.000			-18.718			-4.680
68004.000			-18.719			-4.680
68104.000			-18.718			-4.680
68205.000			-18.716			-4.679
68303.000			-18.716			-4.679
68404.000			-18.716			-4.679
68505.000			-18.715			-4.679
68604.000			-18.716			-4.679
68704.000			-18.716			-4.679
