# Acquired on 08/01/2024 17:41:58 
# SPIDER: Creep_6mm_07714532C-1
# CREEP MEASUREMENT

# time [ms]		force [N]		stiffness [N/mm]
0.000			-8.296			-1.383
101.000			-8.863			-1.477
201.000			-9.092			-1.515
300.000			-9.104			-1.517
401.000			-9.060			-1.510
500.000			-8.998			-1.500
600.000			-8.974			-1.496
701.000			-8.954			-1.492
800.000			-8.935			-1.489
901.000			-8.918			-1.486
1001.000			-8.902			-1.484
1100.000			-8.889			-1.481
1200.000			-8.865			-1.477
1301.000			-8.854			-1.476
1400.000			-8.844			-1.474
1500.000			-8.834			-1.472
1602.000			-8.825			-1.471
1701.000			-8.816			-1.469
1800.000			-8.807			-1.468
1901.000			-8.792			-1.465
2000.000			-8.784			-1.464
2100.000			-8.778			-1.463
2200.000			-8.771			-1.462
2300.000			-8.764			-1.461
2402.000			-8.758			-1.460
2501.000			-8.752			-1.459
2600.000			-8.740			-1.457
2701.000			-8.734			-1.456
2800.000			-8.730			-1.455
2900.000			-8.723			-1.454
3001.000			-8.717			-1.453
3100.000			-8.712			-1.452
3201.000			-8.709			-1.451
3302.000			-8.704			-1.451
3400.000			-8.697			-1.449
3500.000			-8.692			-1.449
3601.000			-8.687			-1.448
3700.000			-8.683			-1.447
3800.000			-8.678			-1.446
3902.000			-8.675			-1.446
4001.000			-8.672			-1.445
4100.000			-8.664			-1.444
4201.000			-8.660			-1.443
4300.000			-8.656			-1.443
4400.000			-8.653			-1.442
4501.000			-8.649			-1.442
4600.000			-8.646			-1.441
4701.000			-8.642			-1.440
4802.000			-8.637			-1.440
4900.000			-8.635			-1.439
5000.000			-8.631			-1.438
5101.000			-8.628			-1.438
5200.000			-8.625			-1.438
5300.000			-8.622			-1.437
5402.000			-8.619			-1.436
5501.000			-8.614			-1.436
5601.000			-8.611			-1.435
5700.000			-8.607			-1.435
5800.000			-8.605			-1.434
5901.000			-8.602			-1.434
6000.000			-8.600			-1.433
6100.000			-8.597			-1.433
6202.000			-8.592			-1.432
6301.000			-8.591			-1.432
6400.000			-8.588			-1.431
6501.000			-8.586			-1.431
6600.000			-8.583			-1.430
6700.000			-8.580			-1.430
6801.000			-8.578			-1.430
6900.000			-8.575			-1.429
7001.000			-8.571			-1.429
7102.000			-8.569			-1.428
7200.000			-8.566			-1.428
7300.000			-8.565			-1.427
7401.000			-8.563			-1.427
7500.000			-8.562			-1.427
7600.000			-8.559			-1.426
7702.000			-8.555			-1.426
7801.000			-8.553			-1.426
7900.000			-8.550			-1.425
8001.000			-8.548			-1.425
8100.000			-8.546			-1.424
8200.000			-8.544			-1.424
8301.000			-8.543			-1.424
8400.000			-8.539			-1.423
8502.000			-8.538			-1.423
8601.000			-8.536			-1.423
8700.000			-8.533			-1.422
8801.000			-8.532			-1.422
8900.000			-8.531			-1.422
9000.000			-8.529			-1.421
9101.000			-8.526			-1.421
9200.000			-8.524			-1.421
9301.000			-8.522			-1.420
9402.000			-8.521			-1.420
9500.000			-8.519			-1.420
9600.000			-8.517			-1.420
9701.000			-8.515			-1.419
9800.000			-8.515			-1.419
9900.000			-8.511			-1.418
10001.000			-8.510			-1.418
10101.000			-8.508			-1.418
10201.000			-8.507			-1.418
10301.000			-8.505			-1.417
10400.000			-8.503			-1.417
10500.000			-8.502			-1.417
10601.000			-8.499			-1.416
10700.000			-8.497			-1.416
10800.000			-8.496			-1.416
10902.000			-8.495			-1.416
11001.000			-8.494			-1.416
11100.000			-8.491			-1.415
11201.000			-8.490			-1.415
11300.000			-8.487			-1.415
11400.000			-8.486			-1.414
11501.000			-8.485			-1.414
11601.000			-8.483			-1.414
11702.000			-8.481			-1.414
11801.000			-8.481			-1.414
11900.000			-8.480			-1.413
12001.000			-8.477			-1.413
12100.000			-8.476			-1.413
12200.000			-8.475			-1.412
12301.000			-8.474			-1.412
12401.000			-8.472			-1.412
12501.000			-8.469			-1.412
12601.000			-8.468			-1.411
12700.000			-8.467			-1.411
12800.000			-8.464			-1.411
12901.000			-8.462			-1.410
13000.000			-8.462			-1.410
13100.000			-8.462			-1.410
13202.000			-8.460			-1.410
13301.000			-8.459			-1.410
13400.000			-8.458			-1.410
13501.000			-8.455			-1.409
13600.000			-8.454			-1.409
13700.000			-8.454			-1.409
13801.000			-8.452			-1.409
13900.000			-8.452			-1.409
14001.000			-8.450			-1.408
14102.000			-8.448			-1.408
14200.000			-8.447			-1.408
14300.000			-8.446			-1.408
14401.000			-8.445			-1.407
14500.000			-8.444			-1.407
14600.000			-8.442			-1.407
14701.000			-8.441			-1.407
14801.000			-8.440			-1.407
14902.000			-8.438			-1.406
15000.000			-8.437			-1.406
15100.000			-8.436			-1.406
15201.000			-8.435			-1.406
15300.000			-8.434			-1.406
15400.000			-8.433			-1.405
15501.000			-8.431			-1.405
15601.000			-8.428			-1.405
15701.000			-8.428			-1.405
15801.000			-8.426			-1.404
15900.000			-8.426			-1.404
16000.000			-8.426			-1.404
16101.000			-8.424			-1.404
16200.000			-8.424			-1.404
16300.000			-8.422			-1.404
16402.000			-8.422			-1.404
16501.000			-8.420			-1.403
16600.000			-8.419			-1.403
16701.000			-8.417			-1.403
16800.000			-8.416			-1.403
16900.000			-8.415			-1.403
17001.000			-8.413			-1.402
17101.000			-8.414			-1.402
17201.000			-8.413			-1.402
17301.000			-8.410			-1.402
17400.000			-8.410			-1.402
17500.000			-8.410			-1.402
17601.000			-8.409			-1.402
17700.000			-8.408			-1.401
17800.000			-8.407			-1.401
17902.000			-8.405			-1.401
18001.000			-8.404			-1.401
18100.000			-8.404			-1.401
18200.000			-8.403			-1.400
18300.000			-8.402			-1.400
18401.000			-8.401			-1.400
18500.000			-8.400			-1.400
18600.000			-8.399			-1.400
18702.000			-8.397			-1.399
18801.000			-8.396			-1.399
18900.000			-8.395			-1.399
19001.000			-8.394			-1.399
19100.000			-8.394			-1.399
19200.000			-8.393			-1.399
19301.000			-8.393			-1.399
19400.000			-8.392			-1.399
19501.000			-8.391			-1.398
19602.000			-8.389			-1.398
19700.000			-8.387			-1.398
19800.000			-8.387			-1.398
19901.000			-8.386			-1.398
20000.000			-8.385			-1.398
20100.000			-8.383			-1.397
20201.000			-8.382			-1.397
20301.000			-8.383			-1.397
20401.000			-8.381			-1.397
20501.000			-8.381			-1.397
20600.000			-8.380			-1.397
20700.000			-8.378			-1.396
20801.000			-8.377			-1.396
20900.000			-8.376			-1.396
21000.000			-8.376			-1.396
21102.000			-8.377			-1.396
21201.000			-8.375			-1.396
21300.000			-8.374			-1.396
21400.000			-8.372			-1.395
21500.000			-8.372			-1.395
21601.000			-8.372			-1.395
21700.000			-8.372			-1.395
21800.000			-8.370			-1.395
21902.000			-8.369			-1.395
22001.000			-8.369			-1.395
22100.000			-8.367			-1.394
22201.000			-8.366			-1.394
22300.000			-8.365			-1.394
22400.000			-8.365			-1.394
22501.000			-8.365			-1.394
22600.000			-8.363			-1.394
22701.000			-8.362			-1.394
22802.000			-8.362			-1.394
22900.000			-8.361			-1.393
23000.000			-8.360			-1.393
23101.000			-8.360			-1.393
23200.000			-8.358			-1.393
23300.000			-8.357			-1.393
23402.000			-8.356			-1.393
23501.000			-8.355			-1.393
23600.000			-8.354			-1.392
23701.000			-8.354			-1.392
23800.000			-8.354			-1.392
23900.000			-8.353			-1.392
24001.000			-8.351			-1.392
24100.000			-8.351			-1.392
24201.000			-8.351			-1.392
24302.000			-8.349			-1.392
24400.000			-8.347			-1.391
24500.000			-8.347			-1.391
24600.000			-8.347			-1.391
24700.000			-8.347			-1.391
24801.000			-8.347			-1.391
24900.000			-8.346			-1.391
25001.000			-8.345			-1.391
25102.000			-8.343			-1.391
25200.000			-8.342			-1.390
25300.000			-8.342			-1.390
25401.000			-8.342			-1.390
25500.000			-8.341			-1.390
25600.000			-8.340			-1.390
25701.000			-8.340			-1.390
25801.000			-8.338			-1.390
25901.000			-8.337			-1.390
26001.000			-8.337			-1.389
26100.000			-8.336			-1.389
26200.000			-8.336			-1.389
26301.000			-8.335			-1.389
26400.000			-8.335			-1.389
26500.000			-8.334			-1.389
26602.000			-8.332			-1.389
26701.000			-8.331			-1.388
26800.000			-8.331			-1.388
26901.000			-8.330			-1.388
27000.000			-8.330			-1.388
27100.000			-8.330			-1.388
27201.000			-8.329			-1.388
27301.000			-8.328			-1.388
27401.000			-8.328			-1.388
27502.000			-8.327			-1.388
27600.000			-8.327			-1.388
27700.000			-8.325			-1.388
27800.000			-8.325			-1.388
27900.000			-8.324			-1.387
28001.000			-8.323			-1.387
28100.000			-8.322			-1.387
28201.000			-8.322			-1.387
28302.000			-8.320			-1.387
28400.000			-8.320			-1.387
28500.000			-8.321			-1.387
28601.000			-8.320			-1.387
28700.000			-8.318			-1.386
28800.000			-8.318			-1.386
28902.000			-8.318			-1.386
29001.000			-8.317			-1.386
29101.000			-8.316			-1.386
29201.000			-8.315			-1.386
29300.000			-8.315			-1.386
29400.000			-8.315			-1.386
29501.000			-8.313			-1.386
29600.000			-8.312			-1.385
29701.000			-8.312			-1.385
29802.000			-8.312			-1.385
29901.000			-8.311			-1.385
30000.000			-8.311			-1.385
30101.000			-8.310			-1.385
30200.000			-8.309			-1.385
30300.000			-8.308			-1.385
30401.000			-8.308			-1.385
30501.000			-8.307			-1.384
30601.000			-8.306			-1.384
30701.000			-8.306			-1.384
30800.000			-8.305			-1.384
30900.000			-8.305			-1.384
31000.000			-8.304			-1.384
31100.000			-8.304			-1.384
31201.000			-8.304			-1.384
31301.000			-8.303			-1.384
31401.000			-8.302			-1.384
31501.000			-8.301			-1.383
31600.000			-8.300			-1.383
31700.000			-8.300			-1.383
31801.000			-8.300			-1.383
31900.000			-8.299			-1.383
32001.000			-8.298			-1.383
32102.000			-8.297			-1.383
32201.000			-8.296			-1.383
32300.000			-8.296			-1.383
32401.000			-8.296			-1.383
32500.000			-8.297			-1.383
32600.000			-8.296			-1.383
32701.000			-8.294			-1.382
32801.000			-8.294			-1.382
32901.000			-8.294			-1.382
33001.000			-8.293			-1.382
33100.000			-8.293			-1.382
33200.000			-8.292			-1.382
33301.000			-8.292			-1.382
33400.000			-8.291			-1.382
33500.000			-8.290			-1.382
33602.000			-8.290			-1.382
33701.000			-8.289			-1.381
33800.000			-8.288			-1.381
33901.000			-8.287			-1.381
34000.000			-8.287			-1.381
34100.000			-8.286			-1.381
34200.000			-8.286			-1.381
34300.000			-8.286			-1.381
34402.000			-8.283			-1.381
34501.000			-8.284			-1.381
34600.000			-8.284			-1.381
34701.000			-8.283			-1.381
34800.000			-8.282			-1.380
34900.000			-8.281			-1.380
35001.000			-8.282			-1.380
35100.000			-8.282			-1.380
35201.000			-8.279			-1.380
35302.000			-8.279			-1.380
35400.000			-8.280			-1.380
35500.000			-8.279			-1.380
35601.000			-8.279			-1.380
35700.000			-8.279			-1.380
35800.000			-8.278			-1.380
35901.000			-8.277			-1.379
36001.000			-8.276			-1.379
36101.000			-8.275			-1.379
36201.000			-8.275			-1.379
36300.000			-8.275			-1.379
36400.000			-8.275			-1.379
36501.000			-8.274			-1.379
36600.000			-8.273			-1.379
36700.000			-8.272			-1.379
36802.000			-8.272			-1.379
36901.000			-8.271			-1.378
37000.000			-8.271			-1.378
37101.000			-8.271			-1.378
37200.000			-8.271			-1.378
37300.000			-8.270			-1.378
37400.000			-8.269			-1.378
37500.000			-8.267			-1.378
37602.000			-8.267			-1.378
37701.000			-8.268			-1.378
37800.000			-8.267			-1.378
37901.000			-8.266			-1.378
38000.000			-8.267			-1.378
38100.000			-8.265			-1.378
38201.000			-8.264			-1.377
38300.000			-8.264			-1.377
38401.000			-8.265			-1.377
38502.000			-8.264			-1.377
38600.000			-8.263			-1.377
38700.000			-8.263			-1.377
38801.000			-8.262			-1.377
38900.000			-8.261			-1.377
39000.000			-8.261			-1.377
39101.000			-8.261			-1.377
39201.000			-8.260			-1.377
39301.000			-8.260			-1.377
39401.000			-8.260			-1.377
39500.000			-8.257			-1.376
39600.000			-8.257			-1.376
39701.000			-8.258			-1.376
39800.000			-8.257			-1.376
39900.000			-8.256			-1.376
40002.000			-8.257			-1.376
40101.000			-8.256			-1.376
40200.000			-8.255			-1.376
40301.000			-8.255			-1.376
40400.000			-8.255			-1.376
40500.000			-8.254			-1.376
40600.000			-8.254			-1.376
40700.000			-8.253			-1.376
40802.000			-8.252			-1.375
40901.000			-8.252			-1.375
41000.000			-8.250			-1.375
41101.000			-8.250			-1.375
41200.000			-8.251			-1.375
41300.000			-8.251			-1.375
41401.000			-8.250			-1.375
41501.000			-8.250			-1.375
41601.000			-8.250			-1.375
41702.000			-8.248			-1.375
41800.000			-8.247			-1.374
41900.000			-8.247			-1.374
42001.000			-8.246			-1.374
42100.000			-8.247			-1.374
42200.000			-8.246			-1.374
42301.000			-8.246			-1.374
42401.000			-8.244			-1.374
42500.000			-8.244			-1.374
42601.000			-8.244			-1.374
42700.000			-8.245			-1.374
42800.000			-8.244			-1.374
42901.000			-8.243			-1.374
43000.000			-8.242			-1.374
43101.000			-8.241			-1.374
43202.000			-8.241			-1.374
43300.000			-8.240			-1.373
43400.000			-8.240			-1.373
43501.000			-8.240			-1.373
43600.000			-8.240			-1.373
43700.000			-8.239			-1.373
43800.000			-8.239			-1.373
43901.000			-8.238			-1.373
44002.000			-8.238			-1.373
44100.000			-8.238			-1.373
44200.000			-8.238			-1.373
44301.000			-8.236			-1.373
44400.000			-8.236			-1.373
44500.000			-8.237			-1.373
44601.000			-8.235			-1.373
44701.000			-8.235			-1.373
44801.000			-8.234			-1.372
44901.000			-8.234			-1.372
45000.000			-8.233			-1.372
45100.000			-8.232			-1.372
45201.000			-8.233			-1.372
45300.000			-8.232			-1.372
45400.000			-8.232			-1.372
45502.000			-8.231			-1.372
45601.000			-8.230			-1.372
45700.000			-8.230			-1.372
45801.000			-8.231			-1.372
45900.000			-8.231			-1.372
46000.000			-8.230			-1.372
46101.000			-8.228			-1.371
46201.000			-8.229			-1.371
46301.000			-8.229			-1.371
46401.000			-8.228			-1.371
46500.000			-8.227			-1.371
46600.000			-8.227			-1.371
46701.000			-8.226			-1.371
46800.000			-8.226			-1.371
46900.000			-8.225			-1.371
47002.000			-8.224			-1.371
47101.000			-8.223			-1.371
47201.000			-8.223			-1.371
47300.000			-8.223			-1.370
47400.000			-8.223			-1.370
47501.000			-8.223			-1.371
47600.000			-8.223			-1.371
47700.000			-8.223			-1.370
47802.000			-8.222			-1.370
47901.000			-8.222			-1.370
48000.000			-8.222			-1.370
48101.000			-8.221			-1.370
48200.000			-8.220			-1.370
48300.000			-8.220			-1.370
48401.000			-8.220			-1.370
48500.000			-8.219			-1.370
48601.000			-8.218			-1.370
48702.000			-8.218			-1.370
48800.000			-8.218			-1.370
48900.000			-8.218			-1.370
49001.000			-8.217			-1.369
49100.000			-8.216			-1.369
49200.000			-8.216			-1.369
49301.000			-8.215			-1.369
49401.000			-8.216			-1.369
49501.000			-8.215			-1.369
49601.000			-8.215			-1.369
49700.000			-8.214			-1.369
49800.000			-8.213			-1.369
49901.000			-8.213			-1.369
50000.000			-8.213			-1.369
50100.000			-8.213			-1.369
50202.000			-8.213			-1.369
50301.000			-8.211			-1.369
50401.000			-8.211			-1.369
50500.000			-8.211			-1.369
50600.000			-8.211			-1.368
50701.000			-8.211			-1.368
50800.000			-8.211			-1.368
50901.000			-8.210			-1.368
51002.000			-8.210			-1.368
51100.000			-8.209			-1.368
51200.000			-8.209			-1.368
51301.000			-8.207			-1.368
51400.000			-8.207			-1.368
51500.000			-8.207			-1.368
51601.000			-8.208			-1.368
51701.000			-8.207			-1.368
51801.000			-8.206			-1.368
51901.000			-8.206			-1.368
52000.000			-8.205			-1.368
52100.000			-8.205			-1.368
52201.000			-8.205			-1.367
52300.000			-8.205			-1.367
52400.000			-8.205			-1.367
52502.000			-8.203			-1.367
52601.000			-8.204			-1.367
52700.000			-8.203			-1.367
52801.000			-8.203			-1.367
52900.000			-8.203			-1.367
53000.000			-8.202			-1.367
53101.000			-8.201			-1.367
53201.000			-8.201			-1.367
53302.000			-8.201			-1.367
53400.000			-8.200			-1.367
53500.000			-8.200			-1.367
53601.000			-8.199			-1.367
53700.000			-8.199			-1.367
53800.000			-8.199			-1.366
53901.000			-8.199			-1.366
54001.000			-8.198			-1.366
54101.000			-8.198			-1.366
54201.000			-8.198			-1.366
54300.000			-8.198			-1.366
54400.000			-8.196			-1.366
54501.000			-8.196			-1.366
54600.000			-8.196			-1.366
54700.000			-8.196			-1.366
54802.000			-8.197			-1.366
54901.000			-8.196			-1.366
55000.000			-8.195			-1.366
55101.000			-8.194			-1.366
55200.000			-8.195			-1.366
55300.000			-8.194			-1.366
55401.000			-8.194			-1.366
55500.000			-8.193			-1.365
55601.000			-8.192			-1.365
55702.000			-8.192			-1.365
55800.000			-8.191			-1.365
55900.000			-8.192			-1.365
56001.000			-8.191			-1.365
56100.000			-8.192			-1.365
56200.000			-8.191			-1.365
56301.000			-8.190			-1.365
56401.000			-8.189			-1.365
56502.000			-8.189			-1.365
56600.000			-8.188			-1.365
56700.000			-8.188			-1.365
56801.000			-8.188			-1.365
56900.000			-8.188			-1.365
57000.000			-8.188			-1.365
57101.000			-8.187			-1.365
57201.000			-8.188			-1.365
57301.000			-8.187			-1.365
57401.000			-8.186			-1.364
57500.000			-8.186			-1.364
57600.000			-8.186			-1.364
57701.000			-8.187			-1.364
57800.000			-8.187			-1.365
57900.000			-8.185			-1.364
58002.000			-8.185			-1.364
58101.000			-8.185			-1.364
58200.000			-8.184			-1.364
58301.000			-8.183			-1.364
58400.000			-8.183			-1.364
58500.000			-8.184			-1.364
58601.000			-8.183			-1.364
58700.000			-8.182			-1.364
58801.000			-8.181			-1.364
58902.000			-8.182			-1.364
59001.000			-8.182			-1.364
59100.000			-8.181			-1.363
59201.000			-8.180			-1.363
59300.000			-8.181			-1.364
59400.000			-8.181			-1.363
59501.000			-8.180			-1.363
59601.000			-8.180			-1.363
59702.000			-8.179			-1.363
59801.000			-8.178			-1.363
59900.000			-8.178			-1.363
60001.000			-8.178			-1.363
60100.000			-8.178			-1.363
60200.000			-8.178			-1.363
60301.000			-8.178			-1.363
60401.000			-8.178			-1.363
60501.000			-8.176			-1.363
60601.000			-8.176			-1.363
60700.000			-8.176			-1.363
60800.000			-8.175			-1.363
60901.000			-8.175			-1.363
61000.000			-8.175			-1.363
61100.000			-8.175			-1.363
61202.000			-8.174			-1.362
61301.000			-8.174			-1.362
61400.000			-8.174			-1.362
61501.000			-8.173			-1.362
61600.000			-8.173			-1.362
61700.000			-8.173			-1.362
61801.000			-8.173			-1.362
61900.000			-8.173			-1.362
62001.000			-8.172			-1.362
62102.000			-8.172			-1.362
62200.000			-8.171			-1.362
62300.000			-8.171			-1.362
62401.000			-8.171			-1.362
62500.000			-8.171			-1.362
62600.000			-8.170			-1.362
62701.000			-8.170			-1.362
62801.000			-8.169			-1.362
62902.000			-8.169			-1.361
63000.000			-8.169			-1.361
63100.000			-8.169			-1.362
63201.000			-8.170			-1.362
63300.000			-8.169			-1.362
63400.000			-8.168			-1.361
63501.000			-8.168			-1.361
63601.000			-8.168			-1.361
63701.000			-8.167			-1.361
63801.000			-8.167			-1.361
63900.000			-8.166			-1.361
64000.000			-8.167			-1.361
64101.000			-8.165			-1.361
64200.000			-8.164			-1.361
64300.000			-8.165			-1.361
64402.000			-8.165			-1.361
64501.000			-8.165			-1.361
64600.000			-8.164			-1.361
64701.000			-8.164			-1.361
64800.000			-8.164			-1.361
64900.000			-8.164			-1.361
65001.000			-8.164			-1.361
65101.000			-8.164			-1.361
65201.000			-8.163			-1.360
65302.000			-8.162			-1.360
65400.000			-8.162			-1.360
65500.000			-8.161			-1.360
65601.000			-8.160			-1.360
65700.000			-8.160			-1.360
65800.000			-8.161			-1.360
65902.000			-8.160			-1.360
66001.000			-8.160			-1.360
66102.000			-8.159			-1.360
66200.000			-8.159			-1.360
66300.000			-8.159			-1.360
66401.000			-8.159			-1.360
66500.000			-8.158			-1.360
66600.000			-8.158			-1.360
66701.000			-8.158			-1.360
66801.000			-8.160			-1.360
66901.000			-8.158			-1.360
67001.000			-8.158			-1.360
67100.000			-8.156			-1.359
67200.000			-8.155			-1.359
67301.000			-8.157			-1.359
67400.000			-8.156			-1.359
67500.000			-8.156			-1.359
67602.000			-8.156			-1.359
67701.000			-8.155			-1.359
67800.000			-8.155			-1.359
67901.000			-8.154			-1.359
68000.000			-8.155			-1.359
68100.000			-8.156			-1.359
68201.000			-8.156			-1.359
68300.000			-8.154			-1.359
68401.000			-8.152			-1.359
68502.000			-8.153			-1.359
68600.000			-8.153			-1.359
68700.000			-8.153			-1.359
68801.000			-8.152			-1.359
68900.000			-8.152			-1.359
69000.000			-8.152			-1.359
69101.000			-8.152			-1.359
69201.000			-8.151			-1.359
69302.000			-8.151			-1.358
69400.000			-8.149			-1.358
69500.000			-8.149			-1.358
69601.000			-8.149			-1.358
69700.000			-8.150			-1.358
69800.000			-8.149			-1.358
69901.000			-8.149			-1.358
70001.000			-8.150			-1.358
70101.000			-8.149			-1.358
70202.000			-8.148			-1.358
70300.000			-8.148			-1.358
70400.000			-8.148			-1.358
70501.000			-8.148			-1.358
70600.000			-8.147			-1.358
70700.000			-8.147			-1.358
70801.000			-8.147			-1.358
70901.000			-8.146			-1.358
71001.000			-8.147			-1.358
71101.000			-8.146			-1.358
71200.000			-8.145			-1.358
