# Acquired on 10/01/2024 09:45:07 
# SPIDER: Creep_10mm_0771453C
# CREEP MEASUREMENT

# time [ms]		force [N]		stiffness [N/mm]
1.000			-68.610			-6.861
101.000			-71.115			-7.111
200.000			-71.929			-7.193
300.000			-71.622			-7.162
401.000			-70.953			-7.095
500.000			-70.741			-7.074
602.000			-70.561			-7.056
701.000			-70.405			-7.040
800.000			-70.265			-7.026
901.000			-70.138			-7.014
1000.000			-70.023			-7.002
1100.000			-69.918			-6.992
1201.000			-69.731			-6.973
1301.000			-69.647			-6.965
1401.000			-69.567			-6.957
1501.000			-69.493			-6.949
1600.000			-69.423			-6.942
1700.000			-69.356			-6.936
1801.000			-69.292			-6.929
1900.000			-69.173			-6.917
2000.000			-69.118			-6.912
2102.000			-69.065			-6.907
2201.000			-69.014			-6.901
2300.000			-68.965			-6.896
2401.000			-68.917			-6.892
2500.000			-68.872			-6.887
2600.000			-68.826			-6.883
2701.000			-68.742			-6.874
2801.000			-68.701			-6.870
2901.000			-68.663			-6.866
3001.000			-68.626			-6.863
3100.000			-68.588			-6.859
3200.000			-68.552			-6.855
3301.000			-68.519			-6.852
3400.000			-68.451			-6.845
3500.000			-68.419			-6.842
3602.000			-68.386			-6.839
3701.000			-68.355			-6.836
3800.000			-68.326			-6.833
3900.000			-68.297			-6.830
4000.000			-68.267			-6.827
4101.000			-68.213			-6.821
4200.000			-68.185			-6.818
4300.000			-68.158			-6.816
4402.000			-68.132			-6.813
4501.000			-68.107			-6.811
4600.000			-68.084			-6.808
4701.000			-68.059			-6.806
4800.000			-68.035			-6.803
4900.000			-67.986			-6.799
5001.000			-67.964			-6.796
5100.000			-67.941			-6.794
5201.000			-67.920			-6.792
5302.000			-67.898			-6.790
5400.000			-67.877			-6.788
5500.000			-67.856			-6.786
5601.000			-67.815			-6.781
5700.000			-67.795			-6.779
5800.000			-67.776			-6.778
5901.000			-67.756			-6.776
6001.000			-67.736			-6.774
6101.000			-67.717			-6.772
6201.000			-67.699			-6.770
6300.000			-67.663			-6.766
6400.000			-67.645			-6.764
6501.000			-67.626			-6.763
6600.000			-67.609			-6.761
6700.000			-67.592			-6.759
6802.000			-67.575			-6.758
6901.000			-67.559			-6.756
7000.000			-67.542			-6.754
7100.000			-67.509			-6.751
7200.000			-67.494			-6.749
7301.000			-67.478			-6.748
7400.000			-67.463			-6.746
7500.000			-67.448			-6.745
7602.000			-67.432			-6.743
7701.000			-67.417			-6.742
7800.000			-67.386			-6.739
7901.000			-67.372			-6.737
8000.000			-67.359			-6.736
8100.000			-67.343			-6.734
8201.000			-67.330			-6.733
8301.000			-67.316			-6.732
8401.000			-67.303			-6.730
8501.000			-67.274			-6.727
8600.000			-67.261			-6.726
8700.000			-67.248			-6.725
8801.000			-67.235			-6.724
8900.000			-67.224			-6.722
9000.000			-67.210			-6.721
9102.000			-67.197			-6.720
9201.000			-67.185			-6.718
9300.000			-67.158			-6.716
9401.000			-67.146			-6.715
9500.000			-67.135			-6.714
9600.000			-67.124			-6.712
9701.000			-67.112			-6.711
9800.000			-67.100			-6.710
9901.000			-67.088			-6.709
10002.000			-67.065			-6.706
10100.000			-67.054			-6.705
10200.000			-67.043			-6.704
10300.000			-67.031			-6.703
10400.000			-67.019			-6.702
10501.000			-67.007			-6.701
10600.000			-66.996			-6.700
10701.000			-66.975			-6.698
10802.000			-66.965			-6.697
10900.000			-66.955			-6.695
11000.000			-66.944			-6.694
11101.000			-66.934			-6.693
11200.000			-66.924			-6.692
11300.000			-66.914			-6.691
11401.000			-66.903			-6.690
11501.000			-66.882			-6.688
11601.000			-66.873			-6.687
11701.000			-66.863			-6.686
11800.000			-66.853			-6.685
11900.000			-66.844			-6.684
12001.000			-66.835			-6.683
12100.000			-66.825			-6.683
12200.000			-66.805			-6.681
12302.000			-66.796			-6.680
12401.000			-66.786			-6.679
12500.000			-66.777			-6.678
12601.000			-66.769			-6.677
12700.000			-66.760			-6.676
12800.000			-66.751			-6.675
12901.000			-66.732			-6.673
13000.000			-66.722			-6.672
13101.000			-66.714			-6.671
13202.000			-66.705			-6.671
13300.000			-66.698			-6.670
13400.000			-66.690			-6.669
13500.000			-66.680			-6.668
13600.000			-66.670			-6.667
13701.000			-66.653			-6.665
13800.000			-66.645			-6.665
13901.000			-66.637			-6.664
14002.000			-66.629			-6.663
14101.000			-66.621			-6.662
14200.000			-66.613			-6.661
14301.000			-66.605			-6.661
14400.000			-66.590			-6.659
14500.000			-66.582			-6.658
14601.000			-66.573			-6.657
14701.000			-66.565			-6.656
14801.000			-66.558			-6.656
14902.000			-66.549			-6.655
15000.000			-66.541			-6.654
15100.000			-66.526			-6.653
15201.000			-66.518			-6.652
15300.000			-66.511			-6.651
15400.000			-66.504			-6.650
15502.000			-66.496			-6.650
15601.000			-66.488			-6.649
15701.000			-66.481			-6.648
15801.000			-66.474			-6.647
15900.000			-66.460			-6.646
16000.000			-66.453			-6.645
16101.000			-66.445			-6.645
16200.000			-66.438			-6.644
16300.000			-66.431			-6.643
16402.000			-66.424			-6.642
16501.000			-66.415			-6.642
16600.000			-66.403			-6.640
16700.000			-66.395			-6.639
16800.000			-66.389			-6.639
16901.000			-66.381			-6.638
17000.000			-66.375			-6.638
17100.000			-66.368			-6.637
17202.000			-66.360			-6.636
17301.000			-66.348			-6.635
17400.000			-66.342			-6.634
17501.000			-66.335			-6.633
17600.000			-66.328			-6.633
17700.000			-66.321			-6.632
17801.000			-66.316			-6.632
17900.000			-66.309			-6.631
18001.000			-66.303			-6.630
18102.000			-66.288			-6.629
18200.000			-66.283			-6.628
18300.000			-66.276			-6.628
18401.000			-66.270			-6.627
18500.000			-66.263			-6.626
18600.000			-66.257			-6.626
18701.000			-66.249			-6.625
18801.000			-66.237			-6.624
18901.000			-66.232			-6.623
19001.000			-66.226			-6.623
19100.000			-66.219			-6.622
19200.000			-66.213			-6.621
19301.000			-66.207			-6.621
19400.000			-66.202			-6.620
19500.000			-66.190			-6.619
19602.000			-66.184			-6.618
19701.000			-66.178			-6.618
19800.000			-66.172			-6.617
19900.000			-66.166			-6.617
20000.000			-66.160			-6.616
20101.000			-66.155			-6.615
20200.000			-66.149			-6.615
20300.000			-66.137			-6.614
20402.000			-66.133			-6.613
20501.000			-66.127			-6.613
20600.000			-66.120			-6.612
20701.000			-66.115			-6.612
20800.000			-66.111			-6.611
20900.000			-66.105			-6.610
21001.000			-66.093			-6.609
21100.000			-66.087			-6.609
21201.000			-66.083			-6.608
21302.000			-66.078			-6.608
21400.000			-66.072			-6.607
21500.000			-66.067			-6.607
21601.000			-66.061			-6.606
21700.000			-66.050			-6.605
21800.000			-66.046			-6.605
21901.000			-66.040			-6.604
22001.000			-66.034			-6.603
22101.000			-66.029			-6.603
22201.000			-66.023			-6.602
22300.000			-66.018			-6.602
22400.000			-66.013			-6.601
22501.000			-66.003			-6.600
22600.000			-65.998			-6.600
22700.000			-65.993			-6.599
22802.000			-65.988			-6.599
22901.000			-65.982			-6.598
23000.000			-65.977			-6.598
23100.000			-65.973			-6.597
23200.000			-65.962			-6.596
23301.000			-65.957			-6.596
23400.000			-65.951			-6.595
23500.000			-65.946			-6.595
23602.000			-65.942			-6.594
23701.000			-65.937			-6.594
23800.000			-65.933			-6.593
23901.000			-65.922			-6.592
24000.000			-65.917			-6.592
24100.000			-65.913			-6.591
24201.000			-65.908			-6.591
24300.000			-65.903			-6.590
24401.000			-65.899			-6.590
24502.000			-65.895			-6.590
24600.000			-65.890			-6.589
24700.000			-65.881			-6.588
24801.000			-65.877			-6.588
24900.000			-65.871			-6.587
25000.000			-65.866			-6.587
25101.000			-65.861			-6.586
25201.000			-65.857			-6.586
25301.000			-65.852			-6.585
25401.000			-65.843			-6.584
25500.000			-65.839			-6.584
25600.000			-65.834			-6.583
25701.000			-65.829			-6.583
25800.000			-65.823			-6.582
25900.000			-65.819			-6.582
26001.000			-65.815			-6.582
26101.000			-65.807			-6.581
26202.000			-65.803			-6.580
26300.000			-65.798			-6.580
26400.000			-65.793			-6.579
26501.000			-65.790			-6.579
26600.000			-65.784			-6.578
26700.000			-65.778			-6.578
26801.000			-65.776			-6.578
26901.000			-65.766			-6.577
27001.000			-65.762			-6.576
27101.000			-65.758			-6.576
27200.000			-65.754			-6.575
27300.000			-65.750			-6.575
27401.000			-65.745			-6.575
27500.000			-65.740			-6.574
27600.000			-65.733			-6.573
27702.000			-65.728			-6.573
27801.000			-65.723			-6.572
27900.000			-65.720			-6.572
28001.000			-65.716			-6.572
28100.000			-65.712			-6.571
28200.000			-65.707			-6.571
28301.000			-65.700			-6.570
28400.000			-65.695			-6.570
28501.000			-65.690			-6.569
28602.000			-65.687			-6.569
28701.000			-65.683			-6.568
28800.000			-65.679			-6.568
28901.000			-65.674			-6.567
29000.000			-65.671			-6.567
29100.000			-65.664			-6.566
29201.000			-65.660			-6.566
29300.000			-65.656			-6.566
29402.000			-65.651			-6.565
29501.000			-65.648			-6.565
29600.000			-65.644			-6.564
29701.000			-65.640			-6.564
29800.000			-65.632			-6.563
29900.000			-65.628			-6.563
30001.000			-65.624			-6.562
30100.000			-65.620			-6.562
30201.000			-65.617			-6.562
30302.000			-65.614			-6.561
30400.000			-65.611			-6.561
30500.000			-65.602			-6.560
30601.000			-65.598			-6.560
30700.000			-65.594			-6.559
30800.000			-65.589			-6.559
30901.000			-65.586			-6.559
31001.000			-65.582			-6.558
31101.000			-65.578			-6.558
31201.000			-65.574			-6.557
31300.000			-65.568			-6.557
31400.000			-65.564			-6.556
31501.000			-65.560			-6.556
31600.000			-65.556			-6.556
31700.000			-65.553			-6.555
31802.000			-65.550			-6.555
31901.000			-65.546			-6.555
32000.000			-65.539			-6.554
32101.000			-65.535			-6.553
32200.000			-65.532			-6.553
32300.000			-65.528			-6.553
32401.000			-65.525			-6.552
32500.000			-65.521			-6.552
32602.000			-65.517			-6.552
32701.000			-65.509			-6.551
32800.000			-65.505			-6.551
32901.000			-65.503			-6.550
33000.000			-65.499			-6.550
33100.000			-65.495			-6.550
33201.000			-65.491			-6.549
33300.000			-65.488			-6.549
33401.000			-65.485			-6.548
33502.000			-65.477			-6.548
33600.000			-65.475			-6.548
33700.000			-65.470			-6.547
33801.000			-65.467			-6.547
33900.000			-65.465			-6.546
34000.000			-65.461			-6.546
34101.000			-65.457			-6.546
34201.000			-65.450			-6.545
34301.000			-65.447			-6.545
34401.000			-65.443			-6.544
34500.000			-65.440			-6.544
34600.000			-65.438			-6.544
34701.000			-65.434			-6.543
34800.000			-65.431			-6.543
34900.000			-65.423			-6.542
35002.000			-65.420			-6.542
35101.000			-65.417			-6.542
35200.000			-65.414			-6.541
35301.000			-65.410			-6.541
35400.000			-65.409			-6.541
35500.000			-65.405			-6.540
35601.000			-65.401			-6.540
35700.000			-65.394			-6.539
35802.000			-65.390			-6.539
35901.000			-65.387			-6.539
36000.000			-65.383			-6.538
36101.000			-65.381			-6.538
36200.000			-65.378			-6.538
36300.000			-65.376			-6.538
36401.000			-65.367			-6.537
36500.000			-65.365			-6.537
36601.000			-65.362			-6.536
36702.000			-65.358			-6.536
36800.000			-65.353			-6.535
36900.000			-65.351			-6.535
37001.000			-65.349			-6.535
37100.000			-65.342			-6.534
37200.000			-65.339			-6.534
37301.000			-65.336			-6.534
37401.000			-65.333			-6.533
37501.000			-65.329			-6.533
37601.000			-65.327			-6.533
37700.000			-65.325			-6.532
37800.000			-65.322			-6.532
37901.000			-65.314			-6.531
38000.000			-65.311			-6.531
38100.000			-65.309			-6.531
38202.000			-65.306			-6.531
38301.000			-65.301			-6.530
38400.000			-65.300			-6.530
38501.000			-65.297			-6.530
38600.000			-65.291			-6.529
38700.000			-65.288			-6.529
38801.000			-65.285			-6.528
38900.000			-65.281			-6.528
39002.000			-65.279			-6.528
39101.000			-65.276			-6.528
39200.000			-65.272			-6.527
39301.000			-65.266			-6.527
39400.000			-65.264			-6.526
39500.000			-65.262			-6.526
39601.000			-65.257			-6.526
39700.000			-65.254			-6.525
39801.000			-65.253			-6.525
39902.000			-65.250			-6.525
40001.000			-65.246			-6.525
40100.000			-65.239			-6.524
40201.000			-65.236			-6.524
40300.000			-65.235			-6.523
40400.000			-65.231			-6.523
40501.000			-65.228			-6.523
40601.000			-65.225			-6.523
40701.000			-65.222			-6.522
40801.000			-65.216			-6.522
40900.000			-65.213			-6.521
41000.000			-65.211			-6.521
41101.000			-65.210			-6.521
41200.000			-65.206			-6.521
41300.000			-65.203			-6.520
41402.000			-65.201			-6.520
41501.000			-65.195			-6.519
41600.000			-65.192			-6.519
41701.000			-65.189			-6.519
41800.000			-65.187			-6.519
41900.000			-65.184			-6.518
42001.000			-65.181			-6.518
42100.000			-65.178			-6.518
42202.000			-65.176			-6.518
42301.000			-65.170			-6.517
42400.000			-65.166			-6.517
42501.000			-65.164			-6.516
42600.000			-65.161			-6.516
42700.000			-65.159			-6.516
42801.000			-65.157			-6.516
42900.000			-65.154			-6.515
43001.000			-65.147			-6.515
43102.000			-65.144			-6.514
43200.000			-65.141			-6.514
43300.000			-65.139			-6.514
43401.000			-65.136			-6.514
43500.000			-65.134			-6.513
43600.000			-65.131			-6.513
43702.000			-65.125			-6.513
43801.000			-65.123			-6.512
43901.000			-65.121			-6.512
44001.000			-65.119			-6.512
44100.000			-65.117			-6.512
44200.000			-65.114			-6.511
44301.000			-65.111			-6.511
44400.000			-65.109			-6.511
44501.000			-65.102			-6.510
44602.000			-65.099			-6.510
44700.000			-65.096			-6.510
44800.000			-65.093			-6.509
44901.000			-65.092			-6.509
45000.000			-65.090			-6.509
45100.000			-65.087			-6.509
45201.000			-65.081			-6.508
45301.000			-65.078			-6.508
45402.000			-65.075			-6.507
45500.000			-65.073			-6.507
45600.000			-65.071			-6.507
45701.000			-65.069			-6.507
45800.000			-65.067			-6.507
45900.000			-65.062			-6.506
46001.000			-65.059			-6.506
46101.000			-65.056			-6.506
46201.000			-65.053			-6.505
46301.000			-65.049			-6.505
46400.000			-65.048			-6.505
46500.000			-65.046			-6.505
46601.000			-65.042			-6.504
46700.000			-65.038			-6.504
46800.000			-65.036			-6.504
46902.000			-65.033			-6.503
47001.000			-65.029			-6.503
47100.000			-65.027			-6.503
47201.000			-65.026			-6.503
47300.000			-65.024			-6.502
47400.000			-65.019			-6.502
47501.000			-65.017			-6.502
47600.000			-65.013			-6.501
47701.000			-65.011			-6.501
47802.000			-65.009			-6.501
47900.000			-65.006			-6.501
48000.000			-65.003			-6.500
48101.000			-65.000			-6.500
48200.000			-64.996			-6.500
48300.000			-64.992			-6.499
48401.000			-64.990			-6.499
48501.000			-64.987			-6.499
48602.000			-64.985			-6.499
48701.000			-64.984			-6.498
48800.000			-64.982			-6.498
48901.000			-64.977			-6.498
49000.000			-64.974			-6.497
49100.000			-64.971			-6.497
49201.000			-64.968			-6.497
49300.000			-64.966			-6.497
49401.000			-64.964			-6.496
49502.000			-64.962			-6.496
49600.000			-64.957			-6.496
49700.000			-64.955			-6.495
49801.000			-64.953			-6.495
49900.000			-64.951			-6.495
50000.000			-64.949			-6.495
50101.000			-64.946			-6.495
50201.000			-64.943			-6.494
50301.000			-64.938			-6.494
50401.000			-64.936			-6.494
50500.000			-64.935			-6.494
50600.000			-64.934			-6.493
50701.000			-64.930			-6.493
50800.000			-64.929			-6.493
50900.000			-64.926			-6.493
51002.000			-64.922			-6.492
51101.000			-64.918			-6.492
51200.000			-64.916			-6.492
51301.000			-64.914			-6.491
51400.000			-64.911			-6.491
51500.000			-64.909			-6.491
51601.000			-64.907			-6.491
51700.000			-64.904			-6.490
51802.000			-64.901			-6.490
51901.000			-64.898			-6.490
52000.000			-64.895			-6.490
52101.000			-64.893			-6.489
52200.000			-64.891			-6.489
52300.000			-64.888			-6.489
52401.000			-64.886			-6.489
52500.000			-64.885			-6.488
52601.000			-64.880			-6.488
52702.000			-64.877			-6.488
52801.000			-64.875			-6.487
52900.000			-64.872			-6.487
53001.000			-64.870			-6.487
53100.000			-64.868			-6.487
53200.000			-64.866			-6.487
53301.000			-64.862			-6.486
53400.000			-64.860			-6.486
53501.000			-64.858			-6.486
53602.000			-64.854			-6.485
53700.000			-64.853			-6.485
53800.000			-64.851			-6.485
53901.000			-64.849			-6.485
54000.000			-64.845			-6.484
54100.000			-64.843			-6.484
54201.000			-64.841			-6.484
54301.000			-64.838			-6.484
54401.000			-64.836			-6.484
54501.000			-64.833			-6.483
54600.000			-64.831			-6.483
54700.000			-64.829			-6.483
54801.000			-64.826			-6.483
54900.000			-64.824			-6.482
55000.000			-64.821			-6.482
55102.000			-64.818			-6.482
55201.000			-64.816			-6.482
55301.000			-64.814			-6.481
55400.000			-64.812			-6.481
55500.000			-64.808			-6.481
55601.000			-64.807			-6.481
55700.000			-64.805			-6.480
55800.000			-64.802			-6.480
55902.000			-64.798			-6.480
56001.000			-64.797			-6.480
56100.000			-64.795			-6.480
56201.000			-64.791			-6.479
56300.000			-64.789			-6.479
56400.000			-64.786			-6.479
56501.000			-64.783			-6.478
56600.000			-64.782			-6.478
56701.000			-64.780			-6.478
56802.000			-64.778			-6.478
56901.000			-64.775			-6.477
57000.000			-64.773			-6.477
57101.000			-64.770			-6.477
57200.000			-64.768			-6.477
57300.000			-64.766			-6.477
57401.000			-64.764			-6.476
57500.000			-64.762			-6.476
57601.000			-64.760			-6.476
57702.000			-64.756			-6.476
57800.000			-64.754			-6.475
57900.000			-64.751			-6.475
58001.000			-64.751			-6.475
58100.000			-64.749			-6.475
58200.000			-64.745			-6.475
58300.000			-64.744			-6.474
58401.000			-64.739			-6.474
58502.000			-64.737			-6.474
58600.000			-64.735			-6.474
58700.000			-64.735			-6.473
58801.000			-64.733			-6.473
58900.000			-64.731			-6.473
59000.000			-64.728			-6.473
59101.000			-64.726			-6.473
59201.000			-64.723			-6.472
59301.000			-64.720			-6.472
59401.000			-64.717			-6.472
59500.000			-64.715			-6.471
59600.000			-64.713			-6.471
59701.000			-64.711			-6.471
59800.000			-64.710			-6.471
59900.000			-64.707			-6.471
60001.000			-64.705			-6.471
60101.000			-64.703			-6.470
60201.000			-64.701			-6.470
60301.000			-64.697			-6.470
60400.000			-64.696			-6.470
60500.000			-64.695			-6.470
60601.000			-64.691			-6.469
60700.000			-64.689			-6.469
60800.000			-64.687			-6.469
60902.000			-64.685			-6.468
61001.000			-64.683			-6.468
61100.000			-64.681			-6.468
61201.000			-64.679			-6.468
61300.000			-64.676			-6.468
61400.000			-64.674			-6.467
61500.000			-64.671			-6.467
61600.000			-64.669			-6.467
61702.000			-64.667			-6.467
61801.000			-64.665			-6.466
61900.000			-64.663			-6.466
62001.000			-64.662			-6.466
62100.000			-64.659			-6.466
62200.000			-64.656			-6.466
62301.000			-64.654			-6.465
62400.000			-64.653			-6.465
62501.000			-64.651			-6.465
62602.000			-64.649			-6.465
62700.000			-64.648			-6.465
62800.000			-64.643			-6.464
62901.000			-64.641			-6.464
63000.000			-64.639			-6.464
63100.000			-64.637			-6.464
63201.000			-64.635			-6.464
63301.000			-64.632			-6.463
63401.000			-64.630			-6.463
63501.000			-64.628			-6.463
63600.000			-64.626			-6.463
63700.000			-64.623			-6.462
63801.000			-64.622			-6.462
63900.000			-64.620			-6.462
64000.000			-64.619			-6.462
64102.000			-64.617			-6.462
64201.000			-64.614			-6.461
64300.000			-64.612			-6.461
64401.000			-64.609			-6.461
64500.000			-64.607			-6.461
64600.000			-64.605			-6.461
64700.000			-64.604			-6.460
64800.000			-64.603			-6.460
64902.000			-64.601			-6.460
65001.000			-64.598			-6.460
65100.000			-64.596			-6.460
65201.000			-64.593			-6.459
65300.000			-64.591			-6.459
65400.000			-64.589			-6.459
65501.000			-64.587			-6.459
65600.000			-64.584			-6.458
65701.000			-64.583			-6.458
65802.000			-64.580			-6.458
65901.000			-64.578			-6.458
66000.000			-64.576			-6.458
66101.000			-64.576			-6.458
66200.000			-64.574			-6.457
66300.000			-64.571			-6.457
66401.000			-64.570			-6.457
66500.000			-64.566			-6.457
66601.000			-64.564			-6.456
66702.000			-64.563			-6.456
66800.000			-64.562			-6.456
66900.000			-64.560			-6.456
67001.000			-64.558			-6.456
67100.000			-64.556			-6.456
67200.000			-64.552			-6.455
67301.000			-64.550			-6.455
67401.000			-64.548			-6.455
67501.000			-64.547			-6.455
67601.000			-64.545			-6.455
67700.000			-64.543			-6.454
67800.000			-64.541			-6.454
67900.000			-64.540			-6.454
68000.000			-64.537			-6.454
68101.000			-64.535			-6.454
68201.000			-64.533			-6.453
68301.000			-64.532			-6.453
68402.000			-64.530			-6.453
68500.000			-64.528			-6.453
68600.000			-64.526			-6.453
68701.000			-64.522			-6.452
68800.000			-64.521			-6.452
