# Acquired on 10/01/2024 15:51:32 
# SPIDER: Creep_-7mm_07714532B-1
# CREEP MEASUREMENT

# time [ms]		force [N]		stiffness [N/mm]
0.000			23.134			-3.305
100.000			24.779			-3.540
200.000			25.782			-3.683
300.000			25.702			-3.672
400.000			25.597			-3.657
502.000			25.513			-3.645
601.000			25.441			-3.634
700.000			25.379			-3.626
801.000			25.324			-3.618
900.000			25.233			-3.605
1000.000			25.192			-3.599
1101.000			25.155			-3.594
1201.000			25.121			-3.589
1301.000			25.089			-3.584
1401.000			25.059			-3.580
1500.000			25.031			-3.576
1600.000			24.979			-3.568
1701.000			24.955			-3.565
1800.000			24.933			-3.562
1900.000			24.912			-3.559
2002.000			24.891			-3.556
2101.000			24.871			-3.553
2200.000			24.852			-3.550
2301.000			24.834			-3.548
2400.000			24.800			-3.543
2500.000			24.785			-3.541
2601.000			24.768			-3.538
2701.000			24.751			-3.536
2801.000			24.736			-3.534
2901.000			24.723			-3.532
3000.000			24.710			-3.530
3100.000			24.683			-3.526
3201.000			24.670			-3.524
3300.000			24.657			-3.522
3400.000			24.645			-3.521
3502.000			24.634			-3.519
3601.000			24.622			-3.517
3701.000			24.611			-3.516
3800.000			24.590			-3.513
3900.000			24.579			-3.511
4001.000			24.570			-3.510
4100.000			24.561			-3.509
4200.000			24.551			-3.507
4302.000			24.540			-3.506
4401.000			24.531			-3.504
4500.000			24.522			-3.503
4601.000			24.506			-3.501
4700.000			24.497			-3.500
4800.000			24.488			-3.498
4901.000			24.480			-3.497
5001.000			24.471			-3.496
5101.000			24.464			-3.495
5201.000			24.457			-3.494
5300.000			24.441			-3.492
5400.000			24.434			-3.491
5501.000			24.426			-3.489
5600.000			24.420			-3.489
5700.000			24.413			-3.488
5802.000			24.406			-3.487
5901.000			24.397			-3.485
6000.000			24.384			-3.483
6101.000			24.377			-3.482
6200.000			24.371			-3.482
6300.000			24.364			-3.481
6401.000			24.359			-3.480
6501.000			24.352			-3.479
6602.000			24.346			-3.478
6700.000			24.334			-3.476
6800.000			24.328			-3.475
6901.000			24.322			-3.475
7000.000			24.317			-3.474
7100.000			24.310			-3.473
7201.000			24.305			-3.472
7301.000			24.300			-3.471
7401.000			24.294			-3.471
7501.000			24.284			-3.469
7600.000			24.278			-3.468
7700.000			24.273			-3.468
7801.000			24.269			-3.467
7900.000			24.264			-3.466
8001.000			24.259			-3.466
8102.000			24.254			-3.465
8200.000			24.244			-3.463
8300.000			24.239			-3.463
8401.000			24.234			-3.462
8500.000			24.229			-3.461
8600.000			24.226			-3.461
8701.000			24.222			-3.460
8801.000			24.217			-3.460
8901.000			24.207			-3.458
9001.000			24.203			-3.458
9100.000			24.199			-3.457
9200.000			24.195			-3.456
9301.000			24.191			-3.456
9400.000			24.185			-3.455
9500.000			24.181			-3.454
9602.000			24.174			-3.453
9701.000			24.170			-3.453
9800.000			24.167			-3.452
9900.000			24.162			-3.452
10000.000			24.157			-3.451
10101.000			24.153			-3.450
10200.000			24.150			-3.450
10300.000			24.147			-3.450
10402.000			24.139			-3.448
10501.000			24.135			-3.448
10600.000			24.131			-3.447
10701.000			24.128			-3.447
10800.000			24.123			-3.446
10900.000			24.119			-3.446
11001.000			24.116			-3.445
11101.000			24.111			-3.444
11201.000			24.106			-3.444
11301.000			24.103			-3.443
11400.000			24.099			-3.443
11500.000			24.096			-3.442
11601.000			24.093			-3.442
11700.000			24.089			-3.441
11800.000			24.082			-3.440
11902.000			24.078			-3.440
12001.000			24.075			-3.439
12100.000			24.072			-3.439
12201.000			24.069			-3.438
12300.000			24.066			-3.438
12400.000			24.063			-3.438
12501.000			24.058			-3.437
12600.000			24.052			-3.436
12701.000			24.049			-3.436
12802.000			24.046			-3.435
12900.000			24.041			-3.434
13000.000			24.039			-3.434
13100.000			24.037			-3.434
13200.000			24.035			-3.434
13301.000			24.028			-3.433
13401.000			24.025			-3.432
13501.000			24.022			-3.432
13602.000			24.020			-3.431
13700.000			24.017			-3.431
13800.000			24.013			-3.430
13901.000			24.010			-3.430
14000.000			24.005			-3.429
14100.000			24.003			-3.429
14202.000			24.000			-3.429
14301.000			23.998			-3.428
14400.000			23.995			-3.428
14501.000			23.992			-3.427
14600.000			23.988			-3.427
14700.000			23.983			-3.426
14801.000			23.981			-3.426
14900.000			23.978			-3.425
15000.000			23.975			-3.425
15102.000			23.974			-3.425
15201.000			23.970			-3.424
15300.000			23.968			-3.424
15401.000			23.966			-3.424
15500.000			23.960			-3.423
15600.000			23.957			-3.422
15701.000			23.954			-3.422
15801.000			23.952			-3.422
15901.000			23.951			-3.422
16002.000			23.949			-3.421
16100.000			23.946			-3.421
16200.000			23.941			-3.420
16300.000			23.939			-3.420
16400.000			23.937			-3.420
16501.000			23.934			-3.419
16600.000			23.932			-3.419
16701.000			23.929			-3.418
16802.000			23.927			-3.418
16900.000			23.924			-3.418
17000.000			23.922			-3.417
17101.000			23.919			-3.417
17200.000			23.916			-3.417
17300.000			23.915			-3.416
17401.000			23.912			-3.416
17501.000			23.910			-3.416
17601.000			23.908			-3.415
17701.000			23.903			-3.415
17800.000			23.901			-3.414
17900.000			23.900			-3.414
18001.000			23.898			-3.414
18100.000			23.895			-3.414
18200.000			23.892			-3.413
18302.000			23.890			-3.413
18401.000			23.885			-3.412
18500.000			23.883			-3.412
18601.000			23.882			-3.412
18700.000			23.880			-3.411
18800.000			23.877			-3.411
18901.000			23.876			-3.411
19000.000			23.874			-3.411
19101.000			23.870			-3.410
19202.000			23.868			-3.410
19300.000			23.867			-3.410
19400.000			23.865			-3.409
19500.000			23.862			-3.409
19600.000			23.861			-3.409
19701.000			23.858			-3.408
19800.000			23.854			-3.408
19900.000			23.852			-3.407
20002.000			23.850			-3.407
20101.000			23.849			-3.407
20200.000			23.847			-3.407
20301.000			23.845			-3.406
20400.000			23.843			-3.406
20500.000			23.842			-3.406
20601.000			23.838			-3.405
20701.000			23.835			-3.405
20801.000			23.833			-3.405
20901.000			23.832			-3.405
21000.000			23.830			-3.404
21100.000			23.827			-3.404
21201.000			23.825			-3.404
21300.000			23.823			-3.403
21400.000			23.820			-3.403
21502.000			23.818			-3.403
21601.000			23.817			-3.402
21701.000			23.814			-3.402
21801.000			23.812			-3.402
21900.000			23.810			-3.401
22000.000			23.808			-3.401
22101.000			23.807			-3.401
22200.000			23.804			-3.401
22301.000			23.802			-3.400
22402.000			23.801			-3.400
22500.000			23.799			-3.400
22600.000			23.797			-3.400
22700.000			23.796			-3.399
22800.000			23.793			-3.399
22901.000			23.791			-3.399
23000.000			23.788			-3.398
23101.000			23.787			-3.398
23202.000			23.785			-3.398
23301.000			23.783			-3.398
23400.000			23.781			-3.397
23501.000			23.779			-3.397
23600.000			23.777			-3.397
23700.000			23.775			-3.396
23801.000			23.774			-3.396
23901.000			23.773			-3.396
24001.000			23.771			-3.396
24102.000			23.768			-3.395
24200.000			23.765			-3.395
24300.000			23.764			-3.395
24401.000			23.762			-3.395
24500.000			23.761			-3.394
24600.000			23.759			-3.394
24701.000			23.757			-3.394
24801.000			23.756			-3.394
24901.000			23.753			-3.393
25001.000			23.752			-3.393
25100.000			23.750			-3.393
25200.000			23.748			-3.393
25301.000			23.746			-3.392
25400.000			23.745			-3.392
25500.000			23.743			-3.392
25602.000			23.742			-3.392
25701.000			23.740			-3.391
25800.000			23.737			-3.391
25900.000			23.735			-3.391
26000.000			23.733			-3.390
26101.000			23.733			-3.390
26200.000			23.732			-3.390
26300.000			23.730			-3.390
26402.000			23.726			-3.389
26501.000			23.726			-3.389
26600.000			23.725			-3.389
26701.000			23.724			-3.389
26800.000			23.722			-3.389
26900.000			23.720			-3.389
27001.000			23.718			-3.388
27101.000			23.716			-3.388
27201.000			23.714			-3.388
27302.000			23.713			-3.388
27400.000			23.712			-3.387
27500.000			23.710			-3.387
27601.000			23.708			-3.387
27700.000			23.706			-3.387
27800.000			23.705			-3.386
27901.000			23.703			-3.386
28001.000			23.700			-3.386
28101.000			23.699			-3.386
28201.000			23.698			-3.385
28300.000			23.697			-3.385
28400.000			23.696			-3.385
28501.000			23.695			-3.385
28600.000			23.691			-3.384
28700.000			23.690			-3.384
28802.000			23.690			-3.384
28901.000			23.689			-3.384
29000.000			23.687			-3.384
29100.000			23.686			-3.384
29200.000			23.685			-3.384
29301.000			23.682			-3.383
29400.000			23.680			-3.383
29500.000			23.679			-3.383
29602.000			23.677			-3.382
29701.000			23.677			-3.382
29800.000			23.675			-3.382
29901.000			23.673			-3.382
30000.000			23.672			-3.382
30100.000			23.672			-3.382
30201.000			23.670			-3.381
30300.000			23.668			-3.381
30401.000			23.667			-3.381
30502.000			23.665			-3.381
30600.000			23.664			-3.381
30700.000			23.663			-3.380
30801.000			23.660			-3.380
30900.000			23.659			-3.380
31000.000			23.658			-3.380
31101.000			23.657			-3.380
31201.000			23.656			-3.379
31301.000			23.654			-3.379
31401.000			23.653			-3.379
31500.000			23.652			-3.379
31600.000			23.650			-3.379
31701.000			23.649			-3.378
31800.000			23.648			-3.378
31900.000			23.646			-3.378
32002.000			23.644			-3.378
32101.000			23.642			-3.377
32200.000			23.642			-3.377
32300.000			23.641			-3.377
32400.000			23.639			-3.377
32501.000			23.638			-3.377
32600.000			23.636			-3.377
32700.000			23.634			-3.376
32802.000			23.633			-3.376
32901.000			23.632			-3.376
33000.000			23.630			-3.376
33101.000			23.628			-3.375
33200.000			23.628			-3.375
33300.000			23.627			-3.375
33401.000			23.625			-3.375
33501.000			23.624			-3.375
33601.000			23.623			-3.375
33701.000			23.620			-3.374
33800.000			23.619			-3.374
33900.000			23.618			-3.374
34001.000			23.617			-3.374
34100.000			23.616			-3.374
34200.000			23.615			-3.374
34302.000			23.614			-3.373
34401.000			23.612			-3.373
34500.000			23.610			-3.373
34601.000			23.609			-3.373
34700.000			23.607			-3.372
34800.000			23.607			-3.372
34901.000			23.606			-3.372
35000.000			23.605			-3.372
35101.000			23.602			-3.372
35202.000			23.602			-3.372
35300.000			23.601			-3.372
35400.000			23.598			-3.371
35500.000			23.597			-3.371
35600.000			23.597			-3.371
35701.000			23.596			-3.371
35800.000			23.595			-3.371
35901.000			23.593			-3.370
36002.000			23.591			-3.370
36100.000			23.589			-3.370
36200.000			23.589			-3.370
36301.000			23.587			-3.370
36400.000			23.586			-3.369
36500.000			23.585			-3.369
36601.000			23.583			-3.369
36701.000			23.582			-3.369
36801.000			23.581			-3.369
36901.000			23.580			-3.369
37000.000			23.580			-3.369
37100.000			23.578			-3.368
37201.000			23.576			-3.368
37300.000			23.573			-3.368
37400.000			23.572			-3.367
37502.000			23.570			-3.367
37601.000			23.570			-3.367
37700.000			23.570			-3.367
37801.000			23.569			-3.367
37900.000			23.567			-3.367
38000.000			23.567			-3.367
38101.000			23.565			-3.366
38200.000			23.564			-3.366
38301.000			23.562			-3.366
38402.000			23.561			-3.366
38500.000			23.561			-3.366
38600.000			23.558			-3.365
38700.000			23.558			-3.365
38800.000			23.556			-3.365
38901.000			23.555			-3.365
39000.000			23.555			-3.365
39101.000			23.554			-3.365
39202.000			23.553			-3.365
39300.000			23.551			-3.364
39400.000			23.551			-3.364
39501.000			23.547			-3.364
39600.000			23.547			-3.364
39700.000			23.546			-3.364
39801.000			23.546			-3.364
39901.000			23.545			-3.364
40001.000			23.543			-3.363
40101.000			23.543			-3.363
40200.000			23.542			-3.363
40300.000			23.540			-3.363
40401.000			23.540			-3.363
40500.000			23.538			-3.363
40600.000			23.536			-3.362
40702.000			23.536			-3.362
40801.000			23.535			-3.362
40900.000			23.534			-3.362
41001.000			23.531			-3.362
41100.000			23.530			-3.361
41200.000			23.530			-3.361
41301.000			23.529			-3.361
41400.000			23.527			-3.361
41501.000			23.526			-3.361
41602.000			23.526			-3.361
41700.000			23.523			-3.360
41800.000			23.523			-3.360
41900.000			23.522			-3.360
42000.000			23.522			-3.360
42101.000			23.520			-3.360
42200.000			23.519			-3.360
42301.000			23.518			-3.360
42402.000			23.517			-3.360
42500.000			23.515			-3.359
42600.000			23.515			-3.359
42701.000			23.514			-3.359
42800.000			23.513			-3.359
42900.000			23.512			-3.359
43001.000			23.510			-3.359
43101.000			23.511			-3.359
43200.000			23.508			-3.358
43301.000			23.507			-3.358
43400.000			23.507			-3.358
43500.000			23.506			-3.358
43601.000			23.505			-3.358
43700.000			23.503			-3.358
43801.000			23.502			-3.357
43902.000			23.501			-3.357
44000.000			23.500			-3.357
44100.000			23.499			-3.357
44201.000			23.499			-3.357
44300.000			23.498			-3.357
44400.000			23.496			-3.357
44501.000			23.496			-3.357
44601.000			23.495			-3.356
44701.000			23.494			-3.356
44801.000			23.493			-3.356
44900.000			23.492			-3.356
45000.000			23.491			-3.356
45100.000			23.490			-3.356
45200.000			23.489			-3.356
45301.000			23.488			-3.355
45401.000			23.487			-3.355
45501.000			23.487			-3.355
45602.000			23.486			-3.355
45700.000			23.485			-3.355
45800.000			23.484			-3.355
45901.000			23.483			-3.355
46000.000			23.482			-3.355
46100.000			23.481			-3.354
46201.000			23.480			-3.354
46301.000			23.478			-3.354
46401.000			23.477			-3.354
46501.000			23.476			-3.354
46600.000			23.476			-3.354
46700.000			23.475			-3.354
46801.000			23.472			-3.353
46900.000			23.471			-3.353
47000.000			23.471			-3.353
47102.000			23.471			-3.353
47201.000			23.470			-3.353
47300.000			23.470			-3.353
47401.000			23.468			-3.353
47500.000			23.467			-3.352
47600.000			23.467			-3.352
47701.000			23.466			-3.352
47800.000			23.464			-3.352
47901.000			23.464			-3.352
48002.000			23.463			-3.352
48100.000			23.462			-3.352
48200.000			23.461			-3.352
48300.000			23.460			-3.351
48400.000			23.459			-3.351
48501.000			23.457			-3.351
48600.000			23.457			-3.351
48701.000			23.457			-3.351
48802.000			23.457			-3.351
48900.000			23.455			-3.351
49000.000			23.454			-3.351
49101.000			23.453			-3.350
49200.000			23.452			-3.350
49300.000			23.452			-3.350
49401.000			23.452			-3.350
49501.000			23.451			-3.350
49601.000			23.450			-3.350
49701.000			23.448			-3.350
49800.000			23.448			-3.350
49900.000			23.447			-3.350
50001.000			23.446			-3.349
50100.000			23.445			-3.349
50200.000			23.443			-3.349
50302.000			23.443			-3.349
50401.000			23.442			-3.349
50500.000			23.442			-3.349
50601.000			23.441			-3.349
50700.000			23.440			-3.349
50800.000			23.439			-3.348
50901.000			23.437			-3.348
51001.000			23.436			-3.348
51101.000			23.436			-3.348
51201.000			23.435			-3.348
51300.000			23.435			-3.348
51400.000			23.434			-3.348
51500.000			23.433			-3.348
51600.000			23.432			-3.347
51701.000			23.431			-3.347
51801.000			23.430			-3.347
51901.000			23.429			-3.347
52001.000			23.428			-3.347
52100.000			23.427			-3.347
52200.000			23.427			-3.347
52301.000			23.428			-3.347
52400.000			23.426			-3.347
52500.000			23.425			-3.346
52602.000			23.423			-3.346
52701.000			23.422			-3.346
52800.000			23.422			-3.346
52901.000			23.422			-3.346
53000.000			23.421			-3.346
53100.000			23.420			-3.346
53201.000			23.419			-3.346
53300.000			23.419			-3.346
53401.000			23.417			-3.345
53502.000			23.416			-3.345
53600.000			23.416			-3.345
53700.000			23.416			-3.345
53801.000			23.415			-3.345
53900.000			23.414			-3.345
54000.000			23.413			-3.345
54102.000			23.411			-3.344
54201.000			23.411			-3.344
54300.000			23.410			-3.344
54401.000			23.410			-3.344
54500.000			23.409			-3.344
54600.000			23.408			-3.344
54700.000			23.408			-3.344
54800.000			23.406			-3.344
54902.000			23.405			-3.344
55001.000			23.405			-3.344
55100.000			23.404			-3.343
55201.000			23.403			-3.343
55300.000			23.403			-3.343
55400.000			23.403			-3.343
55501.000			23.400			-3.343
55600.000			23.399			-3.343
55701.000			23.399			-3.343
55802.000			23.398			-3.343
55900.000			23.397			-3.342
56000.000			23.397			-3.342
56101.000			23.396			-3.342
56200.000			23.396			-3.342
56300.000			23.394			-3.342
56401.000			23.393			-3.342
56501.000			23.392			-3.342
56601.000			23.392			-3.342
56701.000			23.392			-3.342
56800.000			23.391			-3.342
56900.000			23.390			-3.341
57001.000			23.387			-3.341
57100.000			23.387			-3.341
57200.000			23.387			-3.341
57302.000			23.386			-3.341
57401.000			23.385			-3.341
57500.000			23.384			-3.341
57601.000			23.384			-3.341
57700.000			23.383			-3.340
57800.000			23.383			-3.340
57900.000			23.382			-3.340
58000.000			23.382			-3.340
58102.000			23.381			-3.340
58201.000			23.381			-3.340
58300.000			23.379			-3.340
58401.000			23.378			-3.340
58500.000			23.377			-3.340
58600.000			23.377			-3.340
58701.000			23.376			-3.339
58800.000			23.374			-3.339
58901.000			23.375			-3.339
59002.000			23.374			-3.339
59100.000			23.373			-3.339
59200.000			23.371			-3.339
59301.000			23.371			-3.339
59400.000			23.370			-3.339
59500.000			23.370			-3.339
59601.000			23.368			-3.338
59701.000			23.368			-3.338
59801.000			23.368			-3.338
59902.000			23.367			-3.338
60000.000			23.366			-3.338
60100.000			23.366			-3.338
60201.000			23.364			-3.338
60300.000			23.364			-3.338
60400.000			23.363			-3.338
60502.000			23.363			-3.338
60601.000			23.361			-3.337
60700.000			23.360			-3.337
60801.000			23.360			-3.337
60900.000			23.360			-3.337
61000.000			23.359			-3.337
61100.000			23.359			-3.337
61200.000			23.358			-3.337
61302.000			23.357			-3.337
61401.000			23.356			-3.337
61500.000			23.355			-3.336
61601.000			23.355			-3.336
61700.000			23.354			-3.336
61800.000			23.354			-3.336
61901.000			23.354			-3.336
62000.000			23.353			-3.336
62101.000			23.351			-3.336
62202.000			23.351			-3.336
62300.000			23.349			-3.336
62400.000			23.348			-3.335
62501.000			23.348			-3.335
62600.000			23.348			-3.335
62700.000			23.347			-3.335
62801.000			23.347			-3.335
62901.000			23.346			-3.335
63001.000			23.344			-3.335
63101.000			23.345			-3.335
63200.000			23.344			-3.335
63300.000			23.343			-3.335
63401.000			23.342			-3.335
63500.000			23.341			-3.334
63600.000			23.341			-3.334
63702.000			23.340			-3.334
63801.000			23.339			-3.334
63900.000			23.338			-3.334
64001.000			23.338			-3.334
64100.000			23.337			-3.334
64200.000			23.337			-3.334
64300.000			23.337			-3.334
64400.000			23.336			-3.334
64502.000			23.334			-3.333
64601.000			23.334			-3.333
64700.000			23.334			-3.333
64801.000			23.333			-3.333
64900.000			23.333			-3.333
65000.000			23.331			-3.333
65101.000			23.331			-3.333
65200.000			23.331			-3.333
65301.000			23.330			-3.333
65402.000			23.329			-3.333
65500.000			23.328			-3.333
65600.000			23.327			-3.332
65701.000			23.327			-3.332
65800.000			23.326			-3.332
65900.000			23.326			-3.332
66001.000			23.325			-3.332
66101.000			23.323			-3.332
66201.000			23.324			-3.332
66301.000			23.324			-3.332
66400.000			23.322			-3.332
66500.000			23.322			-3.332
66601.000			23.321			-3.332
66700.000			23.320			-3.331
66800.000			23.320			-3.331
66902.000			23.320			-3.331
67001.000			23.319			-3.331
67100.000			23.319			-3.331
67201.000			23.317			-3.331
67300.000			23.317			-3.331
67400.000			23.316			-3.331
67500.000			23.315			-3.331
67600.000			23.315			-3.331
67702.000			23.315			-3.331
67801.000			23.314			-3.331
67900.000			23.313			-3.330
68001.000			23.312			-3.330
68100.000			23.311			-3.330
68200.000			23.311			-3.330
68301.000			23.310			-3.330
68400.000			23.309			-3.330
68501.000			23.309			-3.330
68602.000			23.308			-3.330
68701.000			23.307			-3.330
68800.000			23.306			-3.329
68901.000			23.307			-3.330
69000.000			23.306			-3.329
69100.000			23.304			-3.329
69201.000			23.304			-3.329
69301.000			23.303			-3.329
69401.000			23.303			-3.329
69501.000			23.302			-3.329
69600.000			23.302			-3.329
69700.000			23.301			-3.329
69801.000			23.300			-3.329
69900.000			23.300			-3.329
70000.000			23.300			-3.329
70102.000			23.299			-3.328
70201.000			23.299			-3.328
70301.000			23.299			-3.328
70401.000			23.298			-3.328
70500.000			23.296			-3.328
70600.000			23.297			-3.328
70700.000			23.295			-3.328
70800.000			23.294			-3.328
70901.000			23.294			-3.328
71001.000			23.294			-3.328
71101.000			23.293			-3.328
71201.000			23.293			-3.328
