# Acquired on 10/01/2024 16:41:55 
# SPIDER: Creep_9mm_07714532B-2
# CREEP MEASUREMENT

# time [ms]		force [N]		stiffness [N/mm]
0.000			-41.888			-4.654
101.000			-43.222			-4.802
200.000			-43.544			-4.838
300.000			-43.245			-4.805
402.000			-42.939			-4.771
501.000			-42.727			-4.747
600.000			-42.551			-4.728
701.000			-42.267			-4.696
800.000			-42.149			-4.683
900.000			-42.043			-4.671
1001.000			-41.946			-4.661
1101.000			-41.857			-4.651
1201.000			-41.776			-4.642
1301.000			-41.700			-4.633
1400.000			-41.562			-4.618
1500.000			-41.500			-4.611
1601.000			-41.441			-4.605
1700.000			-41.385			-4.598
1800.000			-41.331			-4.592
1902.000			-41.280			-4.587
2001.000			-41.232			-4.581
2100.000			-41.142			-4.571
2201.000			-41.099			-4.567
2300.000			-41.058			-4.562
2400.000			-41.019			-4.558
2501.000			-40.981			-4.553
2601.000			-40.945			-4.549
2702.000			-40.908			-4.545
2801.000			-40.842			-4.538
2900.000			-40.809			-4.534
3001.000			-40.779			-4.531
3100.000			-40.750			-4.528
3200.000			-40.720			-4.524
3301.000			-40.691			-4.521
3401.000			-40.663			-4.518
3501.000			-40.636			-4.515
3601.000			-40.583			-4.509
3700.000			-40.559			-4.507
3800.000			-40.535			-4.504
3901.000			-40.511			-4.501
4000.000			-40.487			-4.499
4100.000			-40.465			-4.496
4202.000			-40.442			-4.494
4301.000			-40.400			-4.489
4400.000			-40.378			-4.486
4501.000			-40.357			-4.484
4600.000			-40.338			-4.482
4700.000			-40.319			-4.480
4801.000			-40.298			-4.478
4901.000			-40.280			-4.476
5001.000			-40.242			-4.471
5101.000			-40.225			-4.469
5200.000			-40.206			-4.467
5300.000			-40.189			-4.465
5401.000			-40.172			-4.464
5500.000			-40.156			-4.462
5600.000			-40.139			-4.460
5702.000			-40.108			-4.456
5801.000			-40.092			-4.455
5901.000			-40.076			-4.453
6000.000			-40.061			-4.451
6100.000			-40.046			-4.450
6201.000			-40.032			-4.448
6300.000			-40.018			-4.446
6401.000			-40.003			-4.445
6502.000			-39.974			-4.442
6600.000			-39.961			-4.440
6700.000			-39.949			-4.439
6801.000			-39.935			-4.437
6900.000			-39.921			-4.436
7000.000			-39.908			-4.434
7101.000			-39.895			-4.433
7201.000			-39.870			-4.430
7301.000			-39.858			-4.429
7401.000			-39.845			-4.427
7500.000			-39.833			-4.426
7600.000			-39.821			-4.425
7701.000			-39.809			-4.423
7800.000			-39.798			-4.422
7900.000			-39.775			-4.419
8002.000			-39.764			-4.418
8101.000			-39.753			-4.417
8200.000			-39.741			-4.416
8301.000			-39.731			-4.415
8400.000			-39.720			-4.413
8500.000			-39.709			-4.412
8601.000			-39.699			-4.411
8700.000			-39.678			-4.409
8801.000			-39.668			-4.408
8902.000			-39.658			-4.406
9000.000			-39.648			-4.405
9101.000			-39.638			-4.404
9200.000			-39.627			-4.403
9300.000			-39.618			-4.402
9401.000			-39.598			-4.400
9500.000			-39.589			-4.399
9601.000			-39.580			-4.398
9702.000			-39.570			-4.397
9800.000			-39.561			-4.396
9900.000			-39.552			-4.395
10001.000			-39.544			-4.394
10100.000			-39.525			-4.392
10200.000			-39.517			-4.391
10301.000			-39.509			-4.390
10401.000			-39.500			-4.389
10501.000			-39.491			-4.388
10601.000			-39.482			-4.387
10700.000			-39.474			-4.386
10800.000			-39.458			-4.384
10901.000			-39.449			-4.383
11000.000			-39.441			-4.382
11100.000			-39.433			-4.381
11202.000			-39.425			-4.381
11301.000			-39.417			-4.380
11400.000			-39.410			-4.379
11501.000			-39.402			-4.378
11600.000			-39.385			-4.376
11700.000			-39.378			-4.375
11801.000			-39.370			-4.374
11901.000			-39.363			-4.374
12001.000			-39.356			-4.373
12101.000			-39.348			-4.372
12200.000			-39.342			-4.371
12301.000			-39.327			-4.370
12400.000			-39.320			-4.369
12500.000			-39.312			-4.368
12601.000			-39.305			-4.367
12701.000			-39.298			-4.366
12801.000			-39.292			-4.366
12901.000			-39.285			-4.365
13000.000			-39.271			-4.363
13100.000			-39.264			-4.363
13201.000			-39.258			-4.362
13300.000			-39.251			-4.361
13400.000			-39.244			-4.360
13502.000			-39.238			-4.360
13601.000			-39.231			-4.359
13700.000			-39.218			-4.358
13801.000			-39.213			-4.357
13900.000			-39.206			-4.356
14000.000			-39.199			-4.355
14101.000			-39.193			-4.355
14200.000			-39.188			-4.354
14301.000			-39.182			-4.354
14402.000			-39.176			-4.353
14500.000			-39.163			-4.351
14600.000			-39.157			-4.351
14701.000			-39.150			-4.350
14800.000			-39.144			-4.349
14900.000			-39.139			-4.349
15001.000			-39.134			-4.348
15101.000			-39.128			-4.348
15201.000			-39.116			-4.346
15301.000			-39.111			-4.346
15400.000			-39.105			-4.345
15501.000			-39.100			-4.344
15600.000			-39.094			-4.344
15700.000			-39.088			-4.343
15801.000			-39.083			-4.343
15900.000			-39.072			-4.341
16001.000			-39.066			-4.341
16102.000			-39.060			-4.340
16200.000			-39.055			-4.339
16300.000			-39.049			-4.339
16401.000			-39.044			-4.338
16500.000			-39.039			-4.338
16600.000			-39.035			-4.337
16702.000			-39.024			-4.336
16801.000			-39.018			-4.335
16900.000			-39.013			-4.335
17001.000			-39.007			-4.334
17100.000			-39.002			-4.334
17200.000			-38.997			-4.333
17301.000			-38.992			-4.332
17400.000			-38.982			-4.331
17500.000			-38.976			-4.331
17602.000			-38.972			-4.330
17701.000			-38.968			-4.330
17800.000			-38.963			-4.329
17901.000			-38.957			-4.329
18000.000			-38.952			-4.328
18100.000			-38.943			-4.327
18201.000			-38.938			-4.326
18300.000			-38.933			-4.326
18401.000			-38.929			-4.325
18502.000			-38.924			-4.325
18600.000			-38.919			-4.324
18701.000			-38.914			-4.324
18800.000			-38.906			-4.323
18900.000			-38.900			-4.322
19001.000			-38.896			-4.322
19100.000			-38.891			-4.321
19201.000			-38.887			-4.321
19302.000			-38.883			-4.320
19400.000			-38.878			-4.320
19500.000			-38.874			-4.319
19601.000			-38.864			-4.318
19700.000			-38.860			-4.318
19800.000			-38.857			-4.317
19901.000			-38.852			-4.317
20001.000			-38.847			-4.316
20101.000			-38.842			-4.316
20201.000			-38.839			-4.315
20300.000			-38.831			-4.315
20400.000			-38.826			-4.314
20501.000			-38.821			-4.313
20600.000			-38.817			-4.313
20700.000			-38.814			-4.313
20802.000			-38.809			-4.312
20901.000			-38.804			-4.312
21001.000			-38.797			-4.311
21101.000			-38.792			-4.310
21200.000			-38.788			-4.310
21300.000			-38.784			-4.309
21401.000			-38.779			-4.309
21500.000			-38.776			-4.308
21600.000			-38.772			-4.308
21702.000			-38.765			-4.307
21801.000			-38.761			-4.307
21901.000			-38.757			-4.306
22000.000			-38.754			-4.306
22100.000			-38.750			-4.306
22201.000			-38.746			-4.305
22300.000			-38.741			-4.305
22400.000			-38.737			-4.304
22502.000			-38.730			-4.303
22601.000			-38.726			-4.303
22700.000			-38.723			-4.303
22801.000			-38.719			-4.302
22900.000			-38.715			-4.302
23000.000			-38.710			-4.301
23101.000			-38.707			-4.301
23200.000			-38.699			-4.300
23301.000			-38.696			-4.300
23402.000			-38.692			-4.299
23500.000			-38.688			-4.299
23600.000			-38.685			-4.298
23701.000			-38.682			-4.298
23800.000			-38.678			-4.298
23900.000			-38.669			-4.297
24001.000			-38.666			-4.296
24101.000			-38.662			-4.296
24201.000			-38.659			-4.295
24301.000			-38.655			-4.295
24400.000			-38.652			-4.295
24500.000			-38.649			-4.294
24601.000			-38.642			-4.294
24700.000			-38.639			-4.293
24800.000			-38.635			-4.293
24902.000			-38.632			-4.292
25001.000			-38.628			-4.292
25101.000			-38.624			-4.292
25200.000			-38.620			-4.291
25300.000			-38.618			-4.291
25401.000			-38.611			-4.290
25500.000			-38.607			-4.290
25600.000			-38.605			-4.289
25702.000			-38.600			-4.289
25801.000			-38.596			-4.288
25901.000			-38.593			-4.288
26001.000			-38.590			-4.288
26100.000			-38.583			-4.287
26200.000			-38.580			-4.287
26301.000			-38.577			-4.286
26400.000			-38.574			-4.286
26500.000			-38.570			-4.286
26602.000			-38.567			-4.285
26701.000			-38.564			-4.285
26800.000			-38.557			-4.284
26901.000			-38.554			-4.284
27000.000			-38.551			-4.283
27100.000			-38.547			-4.283
27201.000			-38.543			-4.283
27300.000			-38.541			-4.282
27401.000			-38.538			-4.282
27502.000			-38.532			-4.281
27600.000			-38.528			-4.281
27700.000			-38.526			-4.281
27801.000			-38.524			-4.280
27900.000			-38.521			-4.280
28000.000			-38.517			-4.280
28101.000			-38.513			-4.279
28201.000			-38.511			-4.279
28302.000			-38.505			-4.278
28400.000			-38.502			-4.278
28500.000			-38.499			-4.278
28601.000			-38.496			-4.277
28700.000			-38.493			-4.277
28800.000			-38.490			-4.277
28901.000			-38.487			-4.276
29001.000			-38.479			-4.275
29101.000			-38.476			-4.275
29201.000			-38.474			-4.275
29300.000			-38.472			-4.275
29400.000			-38.469			-4.274
29501.000			-38.466			-4.274
29600.000			-38.463			-4.274
29700.000			-38.458			-4.273
29802.000			-38.455			-4.273
29901.000			-38.453			-4.273
30001.000			-38.449			-4.272
30101.000			-38.446			-4.272
30200.000			-38.443			-4.271
30300.000			-38.440			-4.271
30401.000			-38.436			-4.271
30500.000			-38.432			-4.270
30601.000			-38.430			-4.270
30702.000			-38.426			-4.270
30801.000			-38.423			-4.269
30900.000			-38.421			-4.269
31001.000			-38.418			-4.269
31100.000			-38.415			-4.268
31200.000			-38.410			-4.268
31301.000			-38.407			-4.267
31401.000			-38.405			-4.267
31502.000			-38.401			-4.267
31601.000			-38.398			-4.266
31700.000			-38.396			-4.266
31801.000			-38.393			-4.266
31900.000			-38.388			-4.265
32000.000			-38.386			-4.265
32101.000			-38.383			-4.265
32200.000			-38.380			-4.264
32301.000			-38.377			-4.264
32402.000			-38.375			-4.264
32500.000			-38.373			-4.264
32600.000			-38.367			-4.263
32701.000			-38.364			-4.263
32800.000			-38.361			-4.262
32900.000			-38.359			-4.262
33001.000			-38.357			-4.262
33101.000			-38.355			-4.262
33201.000			-38.352			-4.261
33301.000			-38.348			-4.261
33400.000			-38.344			-4.260
33500.000			-38.341			-4.260
33601.000			-38.338			-4.260
33700.000			-38.336			-4.260
33800.000			-38.334			-4.259
33902.000			-38.331			-4.259
34001.000			-38.328			-4.259
34100.000			-38.324			-4.258
34201.000			-38.321			-4.258
34300.000			-38.318			-4.258
34400.000			-38.317			-4.257
34501.000			-38.314			-4.257
34601.000			-38.311			-4.257
34702.000			-38.308			-4.256
34800.000			-38.303			-4.256
34900.000			-38.301			-4.256
35001.000			-38.298			-4.255
35100.000			-38.296			-4.255
35200.000			-38.295			-4.255
35301.000			-38.292			-4.255
35401.000			-38.289			-4.254
35501.000			-38.284			-4.254
35602.000			-38.281			-4.253
35700.000			-38.278			-4.253
35800.000			-38.276			-4.253
35901.000			-38.275			-4.253
36000.000			-38.272			-4.252
36100.000			-38.270			-4.252
36201.000			-38.267			-4.252
36301.000			-38.261			-4.251
36401.000			-38.259			-4.251
36501.000			-38.258			-4.251
36600.000			-38.255			-4.251
36700.000			-38.252			-4.250
36801.000			-38.250			-4.250
36900.000			-38.248			-4.250
37000.000			-38.242			-4.249
37102.000			-38.240			-4.249
37201.000			-38.238			-4.249
37300.000			-38.236			-4.248
37401.000			-38.234			-4.248
37500.000			-38.231			-4.248
37600.000			-38.229			-4.248
37701.000			-38.224			-4.247
37800.000			-38.222			-4.247
37902.000			-38.219			-4.247
38001.000			-38.218			-4.246
38100.000			-38.215			-4.246
38201.000			-38.213			-4.246
38300.000			-38.210			-4.246
38400.000			-38.207			-4.245
38501.000			-38.204			-4.245
38600.000			-38.203			-4.245
38701.000			-38.200			-4.244
38802.000			-38.197			-4.244
38900.000			-38.195			-4.244
39000.000			-38.193			-4.244
39101.000			-38.190			-4.243
39200.000			-38.188			-4.243
39300.000			-38.184			-4.243
39401.000			-38.181			-4.242
39501.000			-38.180			-4.242
39601.000			-38.178			-4.242
39701.000			-38.175			-4.242
39800.000			-38.174			-4.242
39900.000			-38.170			-4.241
40001.000			-38.168			-4.241
40100.000			-38.165			-4.241
40200.000			-38.163			-4.240
40302.000			-38.160			-4.240
40401.000			-38.157			-4.240
40500.000			-38.156			-4.240
40601.000			-38.152			-4.239
40700.000			-38.150			-4.239
40800.000			-38.148			-4.239
40901.000			-38.146			-4.238
41000.000			-38.144			-4.238
41102.000			-38.142			-4.238
41201.000			-38.140			-4.238
41300.000			-38.138			-4.238
41401.000			-38.133			-4.237
41500.000			-38.131			-4.237
41600.000			-38.129			-4.237
41701.000			-38.127			-4.236
41801.000			-38.125			-4.236
41901.000			-38.124			-4.236
42001.000			-38.122			-4.236
42100.000			-38.117			-4.235
42200.000			-38.115			-4.235
42301.000			-38.113			-4.235
42400.000			-38.110			-4.234
42500.000			-38.108			-4.234
42602.000			-38.107			-4.234
42701.000			-38.105			-4.234
42800.000			-38.101			-4.233
42901.000			-38.099			-4.233
43000.000			-38.097			-4.233
43100.000			-38.095			-4.233
43201.000			-38.094			-4.233
43300.000			-38.091			-4.232
43401.000			-38.088			-4.232
43502.000			-38.084			-4.232
43600.000			-38.083			-4.231
43700.000			-38.081			-4.231
43801.000			-38.079			-4.231
43900.000			-38.078			-4.231
44000.000			-38.075			-4.231
44101.000			-38.074			-4.230
44201.000			-38.072			-4.230
44302.000			-38.067			-4.230
44400.000			-38.066			-4.230
44500.000			-38.064			-4.229
44601.000			-38.061			-4.229
44700.000			-38.059			-4.229
44800.000			-38.057			-4.229
44901.000			-38.056			-4.228
45001.000			-38.052			-4.228
45101.000			-38.050			-4.228
45201.000			-38.049			-4.228
45300.000			-38.048			-4.228
45400.000			-38.046			-4.227
45501.000			-38.044			-4.227
45600.000			-38.042			-4.227
45700.000			-38.037			-4.226
45802.000			-38.036			-4.226
45901.000			-38.034			-4.226
46000.000			-38.032			-4.226
46101.000			-38.030			-4.226
46200.000			-38.027			-4.225
46300.000			-38.026			-4.225
46401.000			-38.022			-4.225
46500.000			-38.021			-4.225
46601.000			-38.019			-4.224
46702.000			-38.017			-4.224
46800.000			-38.014			-4.224
46900.000			-38.012			-4.224
47001.000			-38.010			-4.223
47100.000			-38.009			-4.223
47200.000			-38.007			-4.223
47301.000			-38.005			-4.223
47401.000			-38.002			-4.222
47502.000			-38.001			-4.222
47600.000			-37.998			-4.222
47700.000			-37.997			-4.222
47801.000			-37.996			-4.222
47900.000			-37.991			-4.221
48000.000			-37.990			-4.221
48101.000			-37.988			-4.221
48201.000			-37.987			-4.221
48301.000			-37.985			-4.221
48401.000			-37.983			-4.220
48500.000			-37.982			-4.220
48600.000			-37.977			-4.220
48701.000			-37.977			-4.220
48800.000			-37.976			-4.220
48900.000			-37.973			-4.219
49001.000			-37.971			-4.219
49101.000			-37.970			-4.219
49201.000			-37.968			-4.219
49301.000			-37.963			-4.218
49400.000			-37.961			-4.218
49500.000			-37.960			-4.218
49601.000			-37.959			-4.218
49700.000			-37.958			-4.218
49800.000			-37.956			-4.217
49902.000			-37.954			-4.217
50001.000			-37.952			-4.217
50100.000			-37.949			-4.217
50201.000			-37.946			-4.216
50300.000			-37.945			-4.216
50400.000			-37.943			-4.216
50501.000			-37.943			-4.216
50600.000			-37.941			-4.216
50702.000			-37.939			-4.215
50801.000			-37.936			-4.215
50901.000			-37.934			-4.215
51001.000			-37.932			-4.215
51100.000			-37.931			-4.215
51200.000			-37.929			-4.214
51301.000			-37.927			-4.214
51400.000			-37.925			-4.214
51500.000			-37.921			-4.213
51602.000			-37.920			-4.213
51701.000			-37.919			-4.213
51800.000			-37.916			-4.213
51901.000			-37.915			-4.213
52000.000			-37.914			-4.213
52100.000			-37.913			-4.213
52201.000			-37.911			-4.212
52301.000			-37.908			-4.212
52401.000			-37.906			-4.212
52501.000			-37.904			-4.212
52600.000			-37.903			-4.211
52700.000			-37.902			-4.211
52801.000			-37.900			-4.211
52900.000			-37.898			-4.211
53000.000			-37.895			-4.211
53101.000			-37.894			-4.210
53201.000			-37.891			-4.210
53301.000			-37.889			-4.210
53401.000			-37.887			-4.210
53500.000			-37.886			-4.210
53600.000			-37.886			-4.210
53701.000			-37.881			-4.209
53800.000			-37.880			-4.209
53901.000			-37.879			-4.209
54001.000			-37.879			-4.209
54101.000			-37.877			-4.209
54202.000			-37.874			-4.208
54300.000			-37.873			-4.208
54400.000			-37.871			-4.208
54501.000			-37.869			-4.208
54600.000			-37.866			-4.207
54700.000			-37.864			-4.207
54801.000			-37.862			-4.207
54901.000			-37.861			-4.207
55001.000			-37.860			-4.207
55101.000			-37.858			-4.206
55200.000			-37.855			-4.206
55300.000			-37.853			-4.206
55401.000			-37.852			-4.206
55500.000			-37.852			-4.206
55600.000			-37.850			-4.206
55702.000			-37.848			-4.205
55801.000			-37.847			-4.205
55900.000			-37.843			-4.205
56001.000			-37.843			-4.205
56100.000			-37.841			-4.205
56200.000			-37.839			-4.204
56301.000			-37.837			-4.204
56400.000			-37.836			-4.204
56501.000			-37.834			-4.204
56602.000			-37.832			-4.204
56700.000			-37.830			-4.203
56800.000			-37.829			-4.203
56901.000			-37.827			-4.203
57000.000			-37.825			-4.203
57101.000			-37.824			-4.203
57200.000			-37.823			-4.203
57301.000			-37.820			-4.202
57402.000			-37.818			-4.202
57501.000			-37.817			-4.202
57600.000			-37.815			-4.202
57701.000			-37.814			-4.202
57800.000			-37.813			-4.201
57900.000			-37.811			-4.201
58001.000			-37.809			-4.201
58101.000			-37.807			-4.201
58201.000			-37.805			-4.201
58302.000			-37.804			-4.200
58400.000			-37.803			-4.200
58500.000			-37.801			-4.200
58601.000			-37.800			-4.200
58700.000			-37.798			-4.200
58800.000			-37.795			-4.199
58901.000			-37.794			-4.199
59001.000			-37.792			-4.199
59101.000			-37.789			-4.199
59201.000			-37.787			-4.199
59300.000			-37.787			-4.199
59400.000			-37.786			-4.198
59501.000			-37.783			-4.198
59600.000			-37.782			-4.198
59700.000			-37.781			-4.198
59802.000			-37.780			-4.198
59901.000			-37.779			-4.198
60001.000			-37.776			-4.197
60101.000			-37.774			-4.197
60200.000			-37.772			-4.197
60301.000			-37.771			-4.197
60400.000			-37.768			-4.196
60500.000			-37.767			-4.196
60601.000			-37.767			-4.196
60701.000			-37.766			-4.196
60801.000			-37.764			-4.196
60901.000			-37.763			-4.196
61000.000			-37.759			-4.195
61100.000			-37.757			-4.195
61201.000			-37.756			-4.195
61300.000			-37.754			-4.195
61400.000			-37.753			-4.195
61502.000			-37.752			-4.195
61601.000			-37.751			-4.195
61700.000			-37.747			-4.194
61801.000			-37.747			-4.194
61900.000			-37.746			-4.194
62000.000			-37.744			-4.194
62101.000			-37.741			-4.193
62200.000			-37.741			-4.193
62301.000			-37.740			-4.193
62402.000			-37.737			-4.193
62501.000			-37.736			-4.193
62600.000			-37.734			-4.193
62701.000			-37.732			-4.192
62800.000			-37.732			-4.192
62900.000			-37.731			-4.192
63001.000			-37.729			-4.192
63101.000			-37.726			-4.192
63201.000			-37.725			-4.192
63302.000			-37.724			-4.192
63400.000			-37.721			-4.191
63501.000			-37.719			-4.191
63600.000			-37.719			-4.191
63700.000			-37.718			-4.191
63801.000			-37.717			-4.191
63900.000			-37.713			-4.190
64001.000			-37.713			-4.190
64102.000			-37.711			-4.190
64200.000			-37.710			-4.190
64300.000			-37.709			-4.190
64401.000			-37.707			-4.190
64500.000			-37.706			-4.190
64600.000			-37.703			-4.189
64701.000			-37.702			-4.189
64801.000			-37.701			-4.189
64901.000			-37.700			-4.189
65001.000			-37.698			-4.189
65100.000			-37.697			-4.189
65200.000			-37.695			-4.188
65301.000			-37.693			-4.188
65400.000			-37.691			-4.188
65500.000			-37.690			-4.188
65602.000			-37.688			-4.188
65701.000			-37.687			-4.187
65800.000			-37.686			-4.187
65901.000			-37.685			-4.187
66000.000			-37.683			-4.187
66100.000			-37.680			-4.187
66201.000			-37.679			-4.187
66300.000			-37.679			-4.187
66400.000			-37.677			-4.186
66502.000			-37.676			-4.186
66601.000			-37.674			-4.186
66701.000			-37.674			-4.186
66800.000			-37.671			-4.186
66900.000			-37.670			-4.186
67001.000			-37.668			-4.185
67100.000			-37.666			-4.185
67200.000			-37.665			-4.185
67302.000			-37.665			-4.185
67401.000			-37.663			-4.185
67500.000			-37.661			-4.185
67601.000			-37.659			-4.184
67700.000			-37.658			-4.184
67800.000			-37.657			-4.184
67901.000			-37.656			-4.184
68000.000			-37.655			-4.184
68100.000			-37.653			-4.184
68202.000			-37.651			-4.183
68301.000			-37.650			-4.183
68400.000			-37.648			-4.183
68501.000			-37.647			-4.183
68600.000			-37.647			-4.183
68700.000			-37.645			-4.183
68801.000			-37.643			-4.183
