# Acquired on 29/01/2024 16:49:49 
# SPIDER: Creep_9mm_HM077x145x38AA-2
# CREEP MEASUREMENT

# time [ms]		force [N]		stiffness [N/mm]
1.000			-50.180			-5.576
105.000			-51.118			-5.680
204.000			-51.264			-5.696
304.000			-51.028			-5.670
405.000			-50.877			-5.653
503.000			-50.780			-5.642
604.000			-50.622			-5.625
705.000			-50.556			-5.617
804.000			-50.494			-5.610
905.000			-50.441			-5.605
1004.000			-50.391			-5.599
1104.000			-50.344			-5.594
1205.000			-50.300			-5.589
1304.000			-50.221			-5.580
1404.000			-50.184			-5.576
1505.000			-50.149			-5.572
1604.000			-50.116			-5.568
1703.000			-50.085			-5.565
1805.000			-50.056			-5.562
1904.000			-50.028			-5.559
2004.000			-49.973			-5.553
2105.000			-49.947			-5.550
2204.000			-49.922			-5.547
2304.000			-49.899			-5.544
2405.000			-49.877			-5.542
2504.000			-49.855			-5.539
2604.000			-49.832			-5.537
2705.000			-49.791			-5.532
2804.000			-49.771			-5.530
2903.000			-49.753			-5.528
3005.000			-49.734			-5.526
3104.000			-49.715			-5.524
3204.000			-49.698			-5.522
3305.000			-49.680			-5.520
3404.000			-49.663			-5.518
3504.000			-49.631			-5.515
3604.000			-49.617			-5.513
3704.000			-49.601			-5.511
3804.000			-49.586			-5.510
3904.000			-49.573			-5.508
4004.000			-49.558			-5.506
4105.000			-49.542			-5.505
4204.000			-49.515			-5.502
4303.000			-49.502			-5.500
4405.000			-49.488			-5.499
4504.000			-49.475			-5.497
4604.000			-49.462			-5.496
4705.000			-49.450			-5.494
4804.000			-49.437			-5.493
4904.000			-49.415			-5.491
5005.000			-49.403			-5.489
5104.000			-49.391			-5.488
5204.000			-49.380			-5.487
5305.000			-49.370			-5.486
5404.000			-49.359			-5.484
5503.000			-49.348			-5.483
5605.000			-49.327			-5.481
5704.000			-49.316			-5.480
5804.000			-49.306			-5.478
5905.000			-49.296			-5.477
6004.000			-49.285			-5.476
6104.000			-49.276			-5.475
6204.000			-49.267			-5.474
6304.000			-49.247			-5.472
6404.000			-49.239			-5.471
6505.000			-49.230			-5.470
6604.000			-49.220			-5.469
6704.000			-49.211			-5.468
6805.000			-49.202			-5.467
6903.000			-49.194			-5.466
7004.000			-49.185			-5.465
7105.000			-49.169			-5.463
7204.000			-49.161			-5.462
7305.000			-49.153			-5.461
7404.000			-49.144			-5.460
7504.000			-49.135			-5.459
7604.000			-49.128			-5.459
7704.000			-49.121			-5.458
7804.000			-49.105			-5.456
7905.000			-49.096			-5.455
8004.000			-49.089			-5.454
8103.000			-49.082			-5.454
8205.000			-49.075			-5.453
8304.000			-49.067			-5.452
8404.000			-49.060			-5.451
8505.000			-49.046			-5.450
8604.000			-49.039			-5.449
8704.000			-49.032			-5.448
8804.000			-49.025			-5.447
8904.000			-49.018			-5.446
9004.000			-49.010			-5.446
9105.000			-49.003			-5.445
9204.000			-48.989			-5.443
9304.000			-48.984			-5.443
9405.000			-48.978			-5.442
9503.000			-48.971			-5.441
9604.000			-48.964			-5.440
9705.000			-48.958			-5.440
9804.000			-48.953			-5.439
9904.000			-48.946			-5.438
10005.000			-48.933			-5.437
10104.000			-48.927			-5.436
10203.000			-48.922			-5.436
10305.000			-48.916			-5.435
10404.000			-48.910			-5.434
10505.000			-48.903			-5.434
10604.000			-48.897			-5.433
10704.000			-48.886			-5.432
10805.000			-48.881			-5.431
10903.000			-48.875			-5.431
11004.000			-48.870			-5.430
11105.000			-48.865			-5.429
11204.000			-48.859			-5.429
11304.000			-48.854			-5.428
11405.000			-48.841			-5.427
11504.000			-48.836			-5.426
11603.000			-48.831			-5.426
11705.000			-48.825			-5.425
11804.000			-48.822			-5.425
11904.000			-48.818			-5.424
12005.000			-48.812			-5.424
12104.000			-48.799			-5.422
12204.000			-48.793			-5.421
12304.000			-48.788			-5.421
12404.000			-48.785			-5.421
12504.000			-48.781			-5.420
12605.000			-48.774			-5.419
12704.000			-48.768			-5.419
12804.000			-48.765			-5.418
12905.000			-48.755			-5.417
13003.000			-48.749			-5.417
13104.000			-48.746			-5.416
13205.000			-48.742			-5.416
13304.000			-48.737			-5.415
13404.000			-48.732			-5.415
13504.000			-48.727			-5.414
13604.000			-48.716			-5.413
13703.000			-48.712			-5.412
13804.000			-48.709			-5.412
13904.000			-48.704			-5.412
14005.000			-48.699			-5.411
14104.000			-48.695			-5.411
14204.000			-48.691			-5.410
14305.000			-48.682			-5.409
14403.000			-48.678			-5.409
14504.000			-48.675			-5.408
14605.000			-48.669			-5.408
14704.000			-48.664			-5.407
14804.000			-48.661			-5.407
14905.000			-48.655			-5.406
15004.000			-48.647			-5.405
15103.000			-48.643			-5.405
15205.000			-48.639			-5.404
15304.000			-48.635			-5.404
15404.000			-48.631			-5.403
15505.000			-48.627			-5.403
15604.000			-48.623			-5.403
15704.000			-48.619			-5.402
15804.000			-48.611			-5.401
15904.000			-48.607			-5.401
16004.000			-48.603			-5.400
16105.000			-48.600			-5.400
16204.000			-48.596			-5.400
16304.000			-48.592			-5.399
16405.000			-48.588			-5.399
16503.000			-48.579			-5.398
16604.000			-48.576			-5.397
16705.000			-48.572			-5.397
16804.000			-48.567			-5.396
16905.000			-48.564			-5.396
17004.000			-48.560			-5.396
17104.000			-48.556			-5.395
17204.000			-48.550			-5.394
17304.000			-48.546			-5.394
17404.000			-48.543			-5.394
17505.000			-48.538			-5.393
17604.000			-48.533			-5.393
17704.000			-48.531			-5.392
17805.000			-48.528			-5.392
17903.000			-48.521			-5.391
18004.000			-48.518			-5.391
18105.000			-48.514			-5.390
18204.000			-48.510			-5.390
18304.000			-48.506			-5.390
18405.000			-48.503			-5.389
18504.000			-48.499			-5.389
18603.000			-48.496			-5.388
18705.000			-48.489			-5.388
18804.000			-48.487			-5.387
18904.000			-48.482			-5.387
19005.000			-48.478			-5.386
19104.000			-48.476			-5.386
19204.000			-48.474			-5.386
19304.000			-48.469			-5.385
19404.000			-48.461			-5.385
19504.000			-48.458			-5.384
19605.000			-48.455			-5.384
19704.000			-48.452			-5.384
19804.000			-48.450			-5.383
19905.000			-48.446			-5.383
20003.000			-48.443			-5.383
20105.000			-48.437			-5.382
20204.000			-48.433			-5.381
20304.000			-48.429			-5.381
20405.000			-48.425			-5.381
20504.000			-48.422			-5.380
20604.000			-48.419			-5.380
20704.000			-48.417			-5.380
20804.000			-48.411			-5.379
20904.000			-48.407			-5.379
21005.000			-48.405			-5.378
21104.000			-48.403			-5.378
21204.000			-48.399			-5.378
21305.000			-48.396			-5.377
21403.000			-48.391			-5.377
21504.000			-48.388			-5.376
21605.000			-48.382			-5.376
21704.000			-48.379			-5.375
21804.000			-48.377			-5.375
21905.000			-48.375			-5.375
22004.000			-48.372			-5.375
22103.000			-48.368			-5.374
22205.000			-48.366			-5.374
22304.000			-48.361			-5.373
22404.000			-48.358			-5.373
22505.000			-48.353			-5.373
22604.000			-48.350			-5.372
22704.000			-48.347			-5.372
22804.000			-48.345			-5.372
22904.000			-48.342			-5.371
23004.000			-48.336			-5.371
23104.000			-48.334			-5.370
23204.000			-48.331			-5.370
23303.000			-48.328			-5.370
23404.000			-48.325			-5.369
23503.000			-48.324			-5.369
23605.000			-48.320			-5.369
23704.000			-48.314			-5.368
23804.000			-48.312			-5.368
23905.000			-48.310			-5.368
24003.000			-48.307			-5.367
24104.000			-48.305			-5.367
24205.000			-48.303			-5.367
24304.000			-48.300			-5.367
24404.000			-48.294			-5.366
24505.000			-48.291			-5.366
24604.000			-48.289			-5.365
24703.000			-48.285			-5.365
24805.000			-48.282			-5.365
24904.000			-48.280			-5.364
25004.000			-48.278			-5.364
25105.000			-48.275			-5.364
25204.000			-48.270			-5.363
25304.000			-48.268			-5.363
25404.000			-48.267			-5.363
25504.000			-48.263			-5.363
25604.000			-48.259			-5.362
25705.000			-48.258			-5.362
25804.000			-48.255			-5.362
25904.000			-48.249			-5.361
26005.000			-48.246			-5.361
26103.000			-48.244			-5.360
26204.000			-48.241			-5.360
26305.000			-48.239			-5.360
26404.000			-48.235			-5.359
26505.000			-48.232			-5.359
26604.000			-48.228			-5.359
26704.000			-48.226			-5.358
26804.000			-48.223			-5.358
26904.000			-48.220			-5.358
27004.000			-48.219			-5.358
27105.000			-48.217			-5.357
27204.000			-48.215			-5.357
27304.000			-48.210			-5.357
27405.000			-48.207			-5.356
27503.000			-48.204			-5.356
27604.000			-48.201			-5.356
27705.000			-48.199			-5.355
27804.000			-48.197			-5.355
27904.000			-48.195			-5.355
28005.000			-48.193			-5.355
28104.000			-48.187			-5.354
28203.000			-48.185			-5.354
28305.000			-48.183			-5.354
28404.000			-48.182			-5.354
28504.000			-48.179			-5.353
28605.000			-48.176			-5.353
28704.000			-48.174			-5.353
28804.000			-48.169			-5.352
28904.000			-48.168			-5.352
29004.000			-48.165			-5.352
29104.000			-48.163			-5.351
29205.000			-48.161			-5.351
29304.000			-48.158			-5.351
29404.000			-48.156			-5.351
29505.000			-48.151			-5.350
29603.000			-48.150			-5.350
29705.000			-48.147			-5.350
29804.000			-48.143			-5.349
29904.000			-48.141			-5.349
30005.000			-48.140			-5.349
30104.000			-48.139			-5.349
30204.000			-48.133			-5.348
30304.000			-48.132			-5.348
30404.000			-48.128			-5.348
30504.000			-48.126			-5.347
30605.000			-48.125			-5.347
30704.000			-48.122			-5.347
30804.000			-48.120			-5.347
30905.000			-48.119			-5.347
31003.000			-48.114			-5.346
31104.000			-48.112			-5.346
31205.000			-48.109			-5.345
31304.000			-48.108			-5.345
31404.000			-48.105			-5.345
31504.000			-48.104			-5.345
31604.000			-48.101			-5.345
31704.000			-48.094			-5.344
31805.000			-48.093			-5.344
31904.000			-48.092			-5.344
32004.000			-48.090			-5.343
32105.000			-48.088			-5.343
32203.000			-48.086			-5.343
32304.000			-48.084			-5.343
32405.000			-48.080			-5.342
32504.000			-48.079			-5.342
32604.000			-48.076			-5.342
32704.000			-48.075			-5.342
32804.000			-48.071			-5.341
32903.000			-48.069			-5.341
33004.000			-48.068			-5.341
33104.000			-48.064			-5.340
33205.000			-48.062			-5.340
33304.000			-48.060			-5.340
33404.000			-48.058			-5.340
33505.000			-48.056			-5.340
33603.000			-48.054			-5.339
33704.000			-48.052			-5.339
33805.000			-48.048			-5.339
33904.000			-48.046			-5.338
34004.000			-48.044			-5.338
34104.000			-48.041			-5.338
34204.000			-48.040			-5.338
34303.000			-48.039			-5.338
34405.000			-48.037			-5.337
34504.000			-48.034			-5.337
34604.000			-48.030			-5.337
34705.000			-48.029			-5.337
34804.000			-48.027			-5.336
34904.000			-48.024			-5.336
35004.000			-48.023			-5.336
35104.000			-48.021			-5.336
35204.000			-48.019			-5.335
35305.000			-48.015			-5.335
35404.000			-48.014			-5.335
35503.000			-48.010			-5.334
35605.000			-48.008			-5.334
35704.000			-48.006			-5.334
35804.000			-48.004			-5.334
35905.000			-48.003			-5.334
36004.000			-48.000			-5.333
36105.000			-47.998			-5.333
36203.000			-47.996			-5.333
36304.000			-47.994			-5.333
36405.000			-47.992			-5.332
36504.000			-47.989			-5.332
36604.000			-47.987			-5.332
36705.000			-47.986			-5.332
36804.000			-47.983			-5.331
36903.000			-47.982			-5.331
37005.000			-47.980			-5.331
37104.000			-47.979			-5.331
37204.000			-47.977			-5.331
37305.000			-47.973			-5.330
37404.000			-47.972			-5.330
37504.000			-47.968			-5.330
37604.000			-47.967			-5.330
37704.000			-47.965			-5.329
37804.000			-47.962			-5.329
37905.000			-47.960			-5.329
38004.000			-47.958			-5.329
38104.000			-47.957			-5.329
38205.000			-47.954			-5.328
38303.000			-47.953			-5.328
38404.000			-47.952			-5.328
38505.000			-47.949			-5.328
38604.000			-47.946			-5.327
38704.000			-47.945			-5.327
38805.000			-47.944			-5.327
38904.000			-47.939			-5.327
39003.000			-47.938			-5.326
39105.000			-47.936			-5.326
39204.000			-47.934			-5.326
39305.000			-47.932			-5.326
39404.000			-47.930			-5.326
39504.000			-47.930			-5.326
39605.000			-47.926			-5.325
39704.000			-47.924			-5.325
39804.000			-47.922			-5.325
39904.000			-47.921			-5.325
40004.000			-47.920			-5.324
40104.000			-47.920			-5.324
40205.000			-47.917			-5.324
40304.000			-47.915			-5.324
40404.000			-47.911			-5.323
40505.000			-47.909			-5.323
40603.000			-47.908			-5.323
40704.000			-47.907			-5.323
40805.000			-47.905			-5.323
40904.000			-47.904			-5.323
41004.000			-47.902			-5.322
41105.000			-47.898			-5.322
41204.000			-47.896			-5.322
41303.000			-47.895			-5.322
41405.000			-47.895			-5.322
41504.000			-47.892			-5.321
41604.000			-47.890			-5.321
41705.000			-47.889			-5.321
41804.000			-47.885			-5.321
41904.000			-47.884			-5.320
42004.000			-47.883			-5.320
42104.000			-47.881			-5.320
42204.000			-47.878			-5.320
42304.000			-47.877			-5.320
42404.000			-47.875			-5.319
42505.000			-47.871			-5.319
42604.000			-47.869			-5.319
42703.000			-47.869			-5.319
42805.000			-47.869			-5.319
42904.000			-47.867			-5.319
43004.000			-47.865			-5.318
43105.000			-47.862			-5.318
43204.000			-47.861			-5.318
43304.000			-47.858			-5.318
43404.000			-47.855			-5.317
43504.000			-47.854			-5.317
43604.000			-47.854			-5.317
43705.000			-47.852			-5.317
43804.000			-47.849			-5.317
43904.000			-47.848			-5.316
44005.000			-47.844			-5.316
44103.000			-47.842			-5.316
44204.000			-47.841			-5.316
44305.000			-47.840			-5.316
44404.000			-47.839			-5.315
44504.000			-47.837			-5.315
44605.000			-47.835			-5.315
44704.000			-47.833			-5.315
44803.000			-47.831			-5.315
44905.000			-47.830			-5.314
45004.000			-47.828			-5.314
45104.000			-47.828			-5.314
45205.000			-47.826			-5.314
45304.000			-47.824			-5.314
45404.000			-47.820			-5.313
45503.000			-47.819			-5.313
45604.000			-47.817			-5.313
45705.000			-47.816			-5.313
45804.000			-47.816			-5.313
45904.000			-47.814			-5.313
46005.000			-47.813			-5.313
46104.000			-47.811			-5.312
46203.000			-47.807			-5.312
46305.000			-47.805			-5.312
46404.000			-47.805			-5.312
46504.000			-47.804			-5.312
46605.000			-47.802			-5.311
46704.000			-47.801			-5.311
46804.000			-47.799			-5.311
46904.000			-47.795			-5.311
47004.000			-47.794			-5.310
47104.000			-47.792			-5.310
47205.000			-47.790			-5.310
47304.000			-47.790			-5.310
47404.000			-47.788			-5.310
47505.000			-47.787			-5.310
47603.000			-47.784			-5.309
47704.000			-47.782			-5.309
47805.000			-47.781			-5.309
47904.000			-47.780			-5.309
48004.000			-47.777			-5.309
48105.000			-47.776			-5.308
48204.000			-47.776			-5.308
48303.000			-47.774			-5.308
48405.000			-47.772			-5.308
48504.000			-47.770			-5.308
48604.000			-47.770			-5.308
48705.000			-47.767			-5.307
48804.000			-47.766			-5.307
48905.000			-47.765			-5.307
49003.000			-47.764			-5.307
49104.000			-47.760			-5.307
49205.000			-47.759			-5.307
49304.000			-47.758			-5.306
49404.000			-47.757			-5.306
49505.000			-47.755			-5.306
49604.000			-47.754			-5.306
49703.000			-47.752			-5.306
49805.000			-47.750			-5.306
49904.000			-47.748			-5.305
50004.000			-47.746			-5.305
50105.000			-47.745			-5.305
50204.000			-47.744			-5.305
50304.000			-47.743			-5.305
50404.000			-47.742			-5.305
50504.000			-47.739			-5.304
50604.000			-47.736			-5.304
50705.000			-47.735			-5.304
50804.000			-47.734			-5.304
50904.000			-47.734			-5.304
51005.000			-47.731			-5.303
51103.000			-47.729			-5.303
51204.000			-47.727			-5.303
51305.000			-47.725			-5.303
51404.000			-47.724			-5.303
51504.000			-47.724			-5.303
51605.000			-47.723			-5.303
51704.000			-47.720			-5.302
51803.000			-47.719			-5.302
51905.000			-47.716			-5.302
52004.000			-47.716			-5.302
52105.000			-47.715			-5.302
52204.000			-47.714			-5.302
52304.000			-47.712			-5.301
52405.000			-47.710			-5.301
52503.000			-47.708			-5.301
52604.000			-47.707			-5.301
52705.000			-47.704			-5.300
52804.000			-47.703			-5.300
52904.000			-47.701			-5.300
53005.000			-47.700			-5.300
53104.000			-47.698			-5.300
53203.000			-47.698			-5.300
53305.000			-47.696			-5.300
53404.000			-47.693			-5.299
53504.000			-47.693			-5.299
53605.000			-47.692			-5.299
53704.000			-47.689			-5.299
53804.000			-47.687			-5.299
53904.000			-47.687			-5.299
54004.000			-47.688			-5.299
54104.000			-47.684			-5.298
54205.000			-47.682			-5.298
54304.000			-47.682			-5.298
54404.000			-47.682			-5.298
54505.000			-47.681			-5.298
54603.000			-47.678			-5.298
54704.000			-47.677			-5.297
54805.000			-47.674			-5.297
54904.000			-47.672			-5.297
55004.000			-47.670			-5.297
55104.000			-47.671			-5.297
55204.000			-47.670			-5.297
55303.000			-47.668			-5.296
55404.000			-47.666			-5.296
55504.000			-47.664			-5.296
55605.000			-47.663			-5.296
55704.000			-47.662			-5.296
55804.000			-47.661			-5.296
55905.000			-47.660			-5.296
56003.000			-47.660			-5.296
56104.000			-47.658			-5.295
56205.000			-47.655			-5.295
56304.000			-47.653			-5.295
56404.000			-47.652			-5.295
56505.000			-47.651			-5.295
56604.000			-47.650			-5.294
56703.000			-47.649			-5.294
56805.000			-47.648			-5.294
56904.000			-47.646			-5.294
57004.000			-47.642			-5.294
57105.000			-47.641			-5.293
57204.000			-47.642			-5.294
57304.000			-47.640			-5.293
57404.000			-47.639			-5.293
57504.000			-47.637			-5.293
57604.000			-47.637			-5.293
57705.000			-47.632			-5.292
57804.000			-47.632			-5.292
57904.000			-47.631			-5.292
58005.000			-47.628			-5.292
58103.000			-47.629			-5.292
58204.000			-47.628			-5.292
58305.000			-47.626			-5.292
58404.000			-47.624			-5.292
58505.000			-47.623			-5.291
58604.000			-47.622			-5.291
58704.000			-47.620			-5.291
58804.000			-47.619			-5.291
58904.000			-47.619			-5.291
59004.000			-47.618			-5.291
59105.000			-47.615			-5.291
59204.000			-47.613			-5.290
59304.000			-47.613			-5.290
59405.000			-47.610			-5.290
59503.000			-47.610			-5.290
59604.000			-47.608			-5.290
59705.000			-47.606			-5.290
59804.000			-47.605			-5.289
59904.000			-47.605			-5.289
60005.000			-47.603			-5.289
60104.000			-47.602			-5.289
60203.000			-47.601			-5.289
60305.000			-47.600			-5.289
60404.000			-47.600			-5.289
60504.000			-47.598			-5.289
60605.000			-47.595			-5.288
60704.000			-47.593			-5.288
60804.000			-47.592			-5.288
60904.000			-47.590			-5.288
61004.000			-47.589			-5.288
61104.000			-47.589			-5.288
61205.000			-47.588			-5.288
61304.000			-47.586			-5.287
61404.000			-47.584			-5.287
61505.000			-47.583			-5.287
61603.000			-47.582			-5.287
61705.000			-47.580			-5.287
61804.000			-47.579			-5.287
61904.000			-47.579			-5.287
62005.000			-47.577			-5.286
62104.000			-47.575			-5.286
62204.000			-47.574			-5.286
62304.000			-47.574			-5.286
62404.000			-47.573			-5.286
62504.000			-47.571			-5.286
62605.000			-47.570			-5.286
62704.000			-47.569			-5.285
62804.000			-47.568			-5.285
62905.000			-47.567			-5.285
63003.000			-47.565			-5.285
63104.000			-47.563			-5.285
63205.000			-47.561			-5.285
63304.000			-47.561			-5.285
63404.000			-47.560			-5.284
63505.000			-47.558			-5.284
63604.000			-47.557			-5.284
63703.000			-47.555			-5.284
63805.000			-47.553			-5.284
63904.000			-47.553			-5.284
64004.000			-47.552			-5.284
64105.000			-47.550			-5.283
64204.000			-47.549			-5.283
64304.000			-47.546			-5.283
64404.000			-47.545			-5.283
64504.000			-47.545			-5.283
64604.000			-47.545			-5.283
64704.000			-47.544			-5.283
64804.000			-47.543			-5.283
64905.000			-47.541			-5.282
65004.000			-47.541			-5.282
65103.000			-47.540			-5.282
65205.000			-47.538			-5.282
65304.000			-47.536			-5.282
65404.000			-47.536			-5.282
65505.000			-47.535			-5.282
65604.000			-47.533			-5.281
65704.000			-47.530			-5.281
65804.000			-47.529			-5.281
65904.000			-47.529			-5.281
66004.000			-47.528			-5.281
66105.000			-47.526			-5.281
66204.000			-47.525			-5.281
66304.000			-47.523			-5.280
66405.000			-47.522			-5.280
66503.000			-47.522			-5.280
66604.000			-47.521			-5.280
66705.000			-47.518			-5.280
66804.000			-47.517			-5.280
66904.000			-47.517			-5.280
67005.000			-47.515			-5.279
67104.000			-47.514			-5.279
67203.000			-47.512			-5.279
67305.000			-47.511			-5.279
67404.000			-47.510			-5.279
67504.000			-47.510			-5.279
67605.000			-47.508			-5.279
67704.000			-47.507			-5.279
67804.000			-47.506			-5.278
67903.000			-47.504			-5.278
68004.000			-47.502			-5.278
68105.000			-47.502			-5.278
68204.000			-47.501			-5.278
68304.000			-47.500			-5.278
68405.000			-47.498			-5.278
68504.000			-47.497			-5.277
68603.000			-47.493			-5.277
68705.000			-47.493			-5.277
