# Acquired on 24/01/2024 12:23:56 
# SPIDER: Creep_-3mm_GRPCNT1454A-1
# CREEP MEASUREMENT

# time [ms]		force [N]		stiffness [N/mm]
0.000			7.227			-2.409
105.000			7.697			-2.566
204.000			7.784			-2.595
304.000			7.710			-2.570
405.000			7.642			-2.547
504.000			7.550			-2.517
604.000			7.514			-2.505
705.000			7.484			-2.495
804.000			7.457			-2.486
904.000			7.433			-2.478
1003.000			7.413			-2.471
1104.000			7.393			-2.464
1205.000			7.360			-2.453
1304.000			7.344			-2.448
1404.000			7.330			-2.443
1505.000			7.316			-2.439
1604.000			7.305			-2.435
1703.000			7.293			-2.431
1805.000			7.282			-2.427
1904.000			7.262			-2.421
2004.000			7.253			-2.418
2105.000			7.244			-2.415
2203.000			7.235			-2.412
2304.000			7.226			-2.409
2405.000			7.219			-2.406
2504.000			7.210			-2.403
2604.000			7.196			-2.399
2705.000			7.189			-2.396
2804.000			7.184			-2.395
2903.000			7.177			-2.392
3005.000			7.171			-2.390
3104.000			7.165			-2.388
3204.000			7.159			-2.386
3305.000			7.154			-2.385
3403.000			7.143			-2.381
3504.000			7.138			-2.379
3605.000			7.134			-2.378
3704.000			7.129			-2.376
3804.000			7.124			-2.375
3905.000			7.119			-2.373
4004.000			7.114			-2.371
4103.000			7.106			-2.369
4205.000			7.102			-2.367
4304.000			7.098			-2.366
4405.000			7.094			-2.365
4504.000			7.090			-2.363
4604.000			7.087			-2.362
4705.000			7.082			-2.361
4804.000			7.076			-2.359
4904.000			7.072			-2.357
5005.000			7.068			-2.356
5104.000			7.067			-2.356
5204.000			7.063			-2.354
5304.000			7.059			-2.353
5404.000			7.056			-2.352
5504.000			7.049			-2.350
5605.000			7.046			-2.349
5704.000			7.043			-2.348
5804.000			7.040			-2.347
5905.000			7.037			-2.346
6003.000			7.035			-2.345
6104.000			7.031			-2.344
6205.000			7.028			-2.343
6304.000			7.025			-2.342
6404.000			7.022			-2.341
6504.000			7.019			-2.340
6604.000			7.017			-2.339
6704.000			7.014			-2.338
6805.000			7.011			-2.337
6904.000			7.011			-2.337
7004.000			7.004			-2.335
7105.000			7.002			-2.334
7203.000			7.000			-2.333
7304.000			6.997			-2.332
7405.000			6.995			-2.332
7504.000			6.994			-2.331
7605.000			6.991			-2.330
7704.000			6.988			-2.329
7804.000			6.984			-2.328
7904.000			6.982			-2.327
8004.000			6.981			-2.327
8104.000			6.979			-2.326
8205.000			6.978			-2.326
8304.000			6.975			-2.325
8404.000			6.970			-2.323
8505.000			6.970			-2.323
8603.000			6.968			-2.323
8704.000			6.965			-2.322
8805.000			6.963			-2.321
8904.000			6.961			-2.320
9004.000			6.958			-2.319
9105.000			6.956			-2.319
9204.000			6.954			-2.318
9303.000			6.953			-2.318
9405.000			6.951			-2.317
9504.000			6.949			-2.316
9604.000			6.948			-2.316
9705.000			6.946			-2.315
9804.000			6.944			-2.315
9904.000			6.942			-2.314
10004.000			6.941			-2.314
10104.000			6.939			-2.313
10204.000			6.938			-2.313
10305.000			6.935			-2.312
10404.000			6.933			-2.311
10503.000			6.933			-2.311
10605.000			6.930			-2.310
10704.000			6.928			-2.309
10805.000			6.925			-2.308
10904.000			6.925			-2.308
11004.000			6.923			-2.308
11105.000			6.921			-2.307
11203.000			6.920			-2.307
11304.000			6.920			-2.307
11405.000			6.917			-2.306
11504.000			6.915			-2.305
11604.000			6.913			-2.304
11705.000			6.912			-2.304
11804.000			6.911			-2.304
11903.000			6.910			-2.303
12005.000			6.909			-2.303
12104.000			6.905			-2.302
12204.000			6.904			-2.301
12305.000			6.902			-2.301
12404.000			6.902			-2.301
12504.000			6.902			-2.301
12604.000			6.900			-2.300
12704.000			6.898			-2.299
12804.000			6.895			-2.298
12905.000			6.894			-2.298
13004.000			6.894			-2.298
13103.000			6.892			-2.297
13205.000			6.891			-2.297
13304.000			6.890			-2.297
13404.000			6.889			-2.296
13505.000			6.887			-2.296
13604.000			6.885			-2.295
13704.000			6.884			-2.295
13803.000			6.883			-2.294
13904.000			6.881			-2.294
14005.000			6.879			-2.293
14104.000			6.879			-2.293
14204.000			6.879			-2.293
14305.000			6.878			-2.293
14404.000			6.876			-2.292
14503.000			6.874			-2.291
14605.000			6.873			-2.291
14704.000			6.873			-2.291
14804.000			6.872			-2.291
14905.000			6.870			-2.290
15004.000			6.868			-2.289
15104.000			6.868			-2.289
15204.000			6.867			-2.289
15304.000			6.866			-2.289
15403.000			6.864			-2.288
15505.000			6.862			-2.287
15604.000			6.863			-2.288
15704.000			6.861			-2.287
15805.000			6.860			-2.287
15903.000			6.857			-2.286
16004.000			6.856			-2.285
16105.000			6.856			-2.285
16204.000			6.856			-2.285
16304.000			6.854			-2.285
16405.000			6.852			-2.284
16504.000			6.852			-2.284
16603.000			6.851			-2.284
16705.000			6.850			-2.283
16804.000			6.850			-2.283
16904.000			6.848			-2.283
17005.000			6.847			-2.282
17104.000			6.846			-2.282
17205.000			6.846			-2.282
17303.000			6.844			-2.281
17404.000			6.843			-2.281
17505.000			6.843			-2.281
17604.000			6.842			-2.281
17704.000			6.841			-2.280
17805.000			6.840			-2.280
17904.000			6.838			-2.279
18003.000			6.836			-2.279
18105.000			6.836			-2.279
18204.000			6.836			-2.279
18304.000			6.835			-2.278
18405.000			6.835			-2.278
18504.000			6.835			-2.278
18604.000			6.833			-2.278
18704.000			6.832			-2.277
18804.000			6.831			-2.277
18904.000			6.831			-2.277
19005.000			6.831			-2.277
19104.000			6.830			-2.277
19204.000			6.829			-2.276
19305.000			6.827			-2.276
19403.000			6.828			-2.276
19504.000			6.828			-2.276
19605.000			6.827			-2.276
19704.000			6.826			-2.275
19804.000			6.825			-2.275
19905.000			6.825			-2.275
20004.000			6.824			-2.275
20103.000			6.821			-2.274
20205.000			6.821			-2.274
20304.000			6.820			-2.273
20405.000			6.821			-2.274
20504.000			6.820			-2.273
20604.000			6.818			-2.273
20705.000			6.817			-2.272
20803.000			6.816			-2.272
20904.000			6.814			-2.271
21005.000			6.814			-2.271
21104.000			6.813			-2.271
21204.000			6.812			-2.271
21305.000			6.812			-2.271
21404.000			6.812			-2.271
21503.000			6.811			-2.270
21605.000			6.809			-2.270
21704.000			6.808			-2.269
21804.000			6.808			-2.269
21905.000			6.807			-2.269
22004.000			6.806			-2.269
22104.000			6.807			-2.269
22204.000			6.806			-2.269
22304.000			6.805			-2.268
22404.000			6.804			-2.268
22505.000			6.803			-2.268
22604.000			6.802			-2.267
22703.000			6.801			-2.267
22805.000			6.801			-2.267
22904.000			6.800			-2.267
23004.000			6.798			-2.266
23105.000			6.797			-2.266
23204.000			6.797			-2.266
23304.000			6.796			-2.265
23404.000			6.795			-2.265
23504.000			6.794			-2.265
23603.000			6.793			-2.264
23704.000			6.793			-2.264
23804.000			6.792			-2.264
23905.000			6.791			-2.264
24004.000			6.791			-2.264
24104.000			6.791			-2.264
24205.000			6.790			-2.263
24303.000			6.790			-2.263
24404.000			6.787			-2.262
24505.000			6.786			-2.262
24604.000			6.785			-2.262
24704.000			6.785			-2.262
24805.000			6.785			-2.262
24904.000			6.784			-2.261
25003.000			6.784			-2.261
25105.000			6.783			-2.261
25204.000			6.782			-2.261
25304.000			6.781			-2.260
25405.000			6.781			-2.260
25504.000			6.780			-2.260
25604.000			6.778			-2.259
25704.000			6.778			-2.259
25804.000			6.778			-2.259
25904.000			6.776			-2.259
26005.000			6.776			-2.259
26104.000			6.776			-2.259
26204.000			6.776			-2.259
26305.000			6.775			-2.258
26403.000			6.775			-2.258
26504.000			6.773			-2.258
26605.000			6.772			-2.257
26704.000			6.771			-2.257
26805.000			6.770			-2.257
26904.000			6.770			-2.257
27004.000			6.771			-2.257
27104.000			6.770			-2.257
27204.000			6.769			-2.256
27304.000			6.767			-2.256
27405.000			6.767			-2.256
27504.000			6.767			-2.256
27604.000			6.767			-2.256
27705.000			6.766			-2.255
27803.000			6.766			-2.255
27904.000			6.765			-2.255
28005.000			6.765			-2.255
28104.000			6.762			-2.254
28204.000			6.762			-2.254
28305.000			6.763			-2.254
28404.000			6.762			-2.254
28503.000			6.762			-2.254
28605.000			6.762			-2.254
28704.000			6.760			-2.253
28804.000			6.759			-2.253
28905.000			6.759			-2.253
29004.000			6.759			-2.253
29104.000			6.758			-2.253
29204.000			6.757			-2.252
29304.000			6.756			-2.252
29404.000			6.757			-2.252
29505.000			6.755			-2.252
29604.000			6.755			-2.252
29704.000			6.754			-2.251
29805.000			6.754			-2.251
29903.000			6.753			-2.251
30005.000			6.753			-2.251
30104.000			6.753			-2.251
30204.000			6.753			-2.251
30305.000			6.750			-2.250
30404.000			6.751			-2.250
30504.000			6.751			-2.250
30604.000			6.750			-2.250
30704.000			6.748			-2.249
30804.000			6.748			-2.249
30905.000			6.748			-2.249
31004.000			6.747			-2.249
31104.000			6.746			-2.249
31205.000			6.745			-2.248
31303.000			6.745			-2.248
31404.000			6.745			-2.248
31505.000			6.746			-2.249
31604.000			6.745			-2.248
31704.000			6.744			-2.248
31805.000			6.743			-2.248
31904.000			6.743			-2.248
32003.000			6.742			-2.247
32105.000			6.741			-2.247
32204.000			6.740			-2.247
32304.000			6.742			-2.247
32405.000			6.741			-2.247
32503.000			6.741			-2.247
32604.000			6.740			-2.247
32705.000			6.738			-2.246
32804.000			6.738			-2.246
32904.000			6.737			-2.246
33004.000			6.736			-2.245
33104.000			6.736			-2.245
33203.000			6.736			-2.245
33304.000			6.735			-2.245
33404.000			6.736			-2.245
33505.000			6.735			-2.245
33604.000			6.734			-2.245
33704.000			6.734			-2.245
33805.000			6.734			-2.245
33903.000			6.732			-2.244
34004.000			6.732			-2.244
34105.000			6.732			-2.244
34204.000			6.732			-2.244
34304.000			6.732			-2.244
34405.000			6.731			-2.244
34504.000			6.730			-2.243
34603.000			6.730			-2.243
34705.000			6.729			-2.243
34804.000			6.729			-2.243
34904.000			6.728			-2.243
35005.000			6.728			-2.243
35104.000			6.727			-2.242
35204.000			6.727			-2.242
35304.000			6.727			-2.242
35404.000			6.725			-2.242
35504.000			6.725			-2.242
35605.000			6.726			-2.242
35704.000			6.725			-2.242
35804.000			6.725			-2.242
35905.000			6.724			-2.241
36003.000			6.724			-2.241
36104.000			6.723			-2.241
36205.000			6.722			-2.241
36304.000			6.722			-2.241
36405.000			6.722			-2.241
36504.000			6.722			-2.241
36604.000			6.722			-2.241
36704.000			6.721			-2.240
36804.000			6.720			-2.240
36904.000			6.719			-2.240
37005.000			6.719			-2.240
37104.000			6.718			-2.239
37204.000			6.718			-2.239
37305.000			6.717			-2.239
37403.000			6.717			-2.239
37504.000			6.717			-2.239
37605.000			6.716			-2.239
37704.000			6.716			-2.239
37804.000			6.716			-2.239
37905.000			6.715			-2.238
38004.000			6.714			-2.238
38103.000			6.713			-2.238
38205.000			6.713			-2.238
38304.000			6.713			-2.238
38404.000			6.713			-2.238
38505.000			6.713			-2.238
38603.000			6.714			-2.238
38704.000			6.713			-2.238
38805.000			6.712			-2.237
38904.000			6.711			-2.237
39004.000			6.711			-2.237
39105.000			6.710			-2.237
39204.000			6.710			-2.237
39303.000			6.710			-2.237
39405.000			6.709			-2.236
39504.000			6.709			-2.236
39605.000			6.708			-2.236
39704.000			6.707			-2.236
39804.000			6.708			-2.236
39905.000			6.708			-2.236
40003.000			6.707			-2.236
40104.000			6.706			-2.235
40205.000			6.705			-2.235
40304.000			6.705			-2.235
40404.000			6.705			-2.235
40505.000			6.705			-2.235
40604.000			6.704			-2.235
40703.000			6.704			-2.235
40805.000			6.704			-2.235
40904.000			6.702			-2.234
41004.000			6.703			-2.234
41105.000			6.701			-2.234
41204.000			6.701			-2.234
41304.000			6.701			-2.234
41405.000			6.701			-2.234
41504.000			6.701			-2.234
41604.000			6.701			-2.234
41705.000			6.700			-2.233
41804.000			6.700			-2.233
41903.000			6.699			-2.233
42005.000			6.698			-2.233
42104.000			6.697			-2.232
42204.000			6.698			-2.233
42305.000			6.698			-2.233
42404.000			6.698			-2.233
42504.000			6.697			-2.232
42603.000			6.696			-2.232
42704.000			6.696			-2.232
42805.000			6.697			-2.232
42904.000			6.696			-2.232
43004.000			6.695			-2.232
43105.000			6.694			-2.231
43204.000			6.695			-2.232
43303.000			6.694			-2.231
43405.000			6.693			-2.231
43504.000			6.693			-2.231
43604.000			6.692			-2.231
43705.000			6.692			-2.231
43804.000			6.692			-2.231
43904.000			6.691			-2.230
44004.000			6.691			-2.230
44104.000			6.691			-2.230
44204.000			6.690			-2.230
44305.000			6.689			-2.230
44404.000			6.690			-2.230
44504.000			6.689			-2.230
44605.000			6.689			-2.230
44703.000			6.689			-2.230
44804.000			6.688			-2.229
44905.000			6.689			-2.230
45004.000			6.689			-2.230
45104.000			6.688			-2.229
45205.000			6.687			-2.229
45304.000			6.687			-2.229
45403.000			6.687			-2.229
45505.000			6.686			-2.229
45604.000			6.686			-2.229
45704.000			6.685			-2.228
45805.000			6.685			-2.228
45904.000			6.685			-2.228
46005.000			6.685			-2.228
46103.000			6.684			-2.228
46204.000			6.683			-2.228
46305.000			6.682			-2.227
46404.000			6.682			-2.227
46504.000			6.682			-2.227
46605.000			6.682			-2.227
46704.000			6.683			-2.228
46803.000			6.683			-2.228
46905.000			6.681			-2.227
47004.000			6.681			-2.227
47104.000			6.680			-2.227
47205.000			6.681			-2.227
47304.000			6.680			-2.227
47404.000			6.679			-2.226
47504.000			6.679			-2.226
47604.000			6.679			-2.226
47704.000			6.679			-2.226
47805.000			6.678			-2.226
47904.000			6.678			-2.226
48004.000			6.677			-2.226
48105.000			6.679			-2.226
48204.000			6.677			-2.226
48304.000			6.677			-2.226
48404.000			6.677			-2.226
48504.000			6.676			-2.225
48604.000			6.676			-2.225
48705.000			6.675			-2.225
48804.000			6.674			-2.225
48904.000			6.674			-2.225
49005.000			6.673			-2.224
49103.000			6.674			-2.225
49205.000			6.673			-2.224
49304.000			6.672			-2.224
49404.000			6.672			-2.224
49505.000			6.672			-2.224
49604.000			6.673			-2.224
49704.000			6.673			-2.224
49804.000			6.672			-2.224
49904.000			6.672			-2.224
50004.000			6.671			-2.224
50105.000			6.671			-2.224
50204.000			6.671			-2.224
50304.000			6.671			-2.224
50405.000			6.670			-2.223
50503.000			6.669			-2.223
50604.000			6.668			-2.223
50705.000			6.668			-2.223
50804.000			6.669			-2.223
50904.000			6.668			-2.223
51005.000			6.667			-2.222
51104.000			6.668			-2.223
51203.000			6.668			-2.223
51305.000			6.667			-2.222
51404.000			6.667			-2.222
51504.000			6.665			-2.222
51605.000			6.665			-2.222
51704.000			6.665			-2.222
51804.000			6.665			-2.222
51904.000			6.664			-2.221
52004.000			6.665			-2.222
52104.000			6.665			-2.222
52204.000			6.664			-2.221
52304.000			6.663			-2.221
52403.000			6.663			-2.221
52504.000			6.663			-2.221
52604.000			6.662			-2.221
52705.000			6.662			-2.221
52804.000			6.662			-2.221
52904.000			6.662			-2.221
53005.000			6.661			-2.220
53103.000			6.661			-2.220
53204.000			6.661			-2.220
53305.000			6.661			-2.220
53404.000			6.661			-2.220
53504.000			6.660			-2.220
53605.000			6.660			-2.220
53704.000			6.660			-2.220
53803.000			6.659			-2.220
53905.000			6.660			-2.220
54004.000			6.659			-2.220
54104.000			6.659			-2.220
54205.000			6.658			-2.219
54304.000			6.658			-2.219
54404.000			6.658			-2.219
54504.000			6.657			-2.219
54604.000			6.656			-2.219
54704.000			6.656			-2.219
54805.000			6.656			-2.219
54904.000			6.657			-2.219
55004.000			6.657			-2.219
55105.000			6.656			-2.219
55203.000			6.656			-2.219
55304.000			6.655			-2.218
55405.000			6.655			-2.218
55504.000			6.656			-2.219
55605.000			6.655			-2.218
55704.000			6.654			-2.218
55804.000			6.654			-2.218
55904.000			6.654			-2.218
56004.000			6.653			-2.218
56104.000			6.653			-2.218
56205.000			6.653			-2.218
56304.000			6.653			-2.218
56404.000			6.652			-2.217
56505.000			6.653			-2.218
56603.000			6.653			-2.218
56704.000			6.651			-2.217
56805.000			6.651			-2.217
56904.000			6.650			-2.217
57004.000			6.650			-2.217
57105.000			6.651			-2.217
57204.000			6.650			-2.217
57303.000			6.650			-2.217
57405.000			6.649			-2.216
57504.000			6.648			-2.216
57604.000			6.649			-2.216
57705.000			6.650			-2.217
57804.000			6.649			-2.216
57904.000			6.648			-2.216
58004.000			6.647			-2.216
58104.000			6.647			-2.216
58204.000			6.647			-2.216
58305.000			6.648			-2.216
58404.000			6.647			-2.216
58504.000			6.647			-2.216
58605.000			6.645			-2.215
58703.000			6.645			-2.215
58805.000			6.646			-2.215
58904.000			6.646			-2.215
59004.000			6.645			-2.215
59105.000			6.644			-2.215
59204.000			6.645			-2.215
59304.000			6.644			-2.215
59404.000			6.644			-2.215
59504.000			6.644			-2.215
59604.000			6.644			-2.215
59705.000			6.645			-2.215
59804.000			6.643			-2.214
59904.000			6.643			-2.214
60005.000			6.642			-2.214
60103.000			6.642			-2.214
60204.000			6.642			-2.214
60305.000			6.642			-2.214
60404.000			6.642			-2.214
60504.000			6.642			-2.214
60605.000			6.641			-2.214
60704.000			6.641			-2.214
60803.000			6.642			-2.214
60905.000			6.641			-2.214
61004.000			6.640			-2.213
61104.000			6.640			-2.213
61205.000			6.640			-2.213
61304.000			6.640			-2.213
61404.000			6.640			-2.213
61504.000			6.639			-2.213
61604.000			6.639			-2.213
61704.000			6.638			-2.213
61804.000			6.639			-2.213
61904.000			6.638			-2.213
62005.000			6.638			-2.213
62104.000			6.638			-2.213
62203.000			6.637			-2.212
62305.000			6.637			-2.212
62404.000			6.637			-2.212
62504.000			6.637			-2.212
62605.000			6.636			-2.212
62704.000			6.636			-2.212
62804.000			6.635			-2.212
62904.000			6.636			-2.212
63004.000			6.635			-2.212
63104.000			6.635			-2.212
63205.000			6.634			-2.211
63304.000			6.634			-2.211
63404.000			6.634			-2.211
63505.000			6.634			-2.211
63604.000			6.634			-2.211
63704.000			6.633			-2.211
63805.000			6.633			-2.211
63904.000			6.633			-2.211
64004.000			6.633			-2.211
64104.000			6.633			-2.211
64204.000			6.633			-2.211
64304.000			6.633			-2.211
64405.000			6.633			-2.211
64504.000			6.631			-2.210
64604.000			6.633			-2.211
64705.000			6.634			-2.211
64803.000			6.633			-2.211
64904.000			6.633			-2.211
65005.000			6.632			-2.211
65104.000			6.632			-2.211
65205.000			6.632			-2.211
65304.000			6.631			-2.210
65404.000			6.630			-2.210
65504.000			6.631			-2.210
65604.000			6.631			-2.210
65704.000			6.629			-2.210
65805.000			6.629			-2.210
65904.000			6.629			-2.210
66004.000			6.629			-2.210
66105.000			6.630			-2.210
66203.000			6.628			-2.209
66304.000			6.628			-2.209
66405.000			6.628			-2.209
66504.000			6.628			-2.209
66604.000			6.628			-2.209
66705.000			6.627			-2.209
66804.000			6.628			-2.209
66903.000			6.627			-2.209
67005.000			6.626			-2.209
67104.000			6.626			-2.209
67204.000			6.626			-2.209
67305.000			6.625			-2.208
67404.000			6.625			-2.208
67504.000			6.626			-2.209
67604.000			6.626			-2.209
67704.000			6.625			-2.208
67804.000			6.625			-2.208
67905.000			6.625			-2.208
68004.000			6.624			-2.208
68104.000			6.622			-2.207
68205.000			6.622			-2.207
68303.000			6.622			-2.207
68405.000			6.622			-2.207
68504.000			6.623			-2.208
68604.000			6.623			-2.208
68705.000			6.623			-2.208
68804.000			6.622			-2.207
68904.000			6.621			-2.207
69004.000			6.621			-2.207
69104.000			6.620			-2.207
69204.000			6.620			-2.207
69305.000			6.620			-2.207
69404.000			6.620			-2.207
69504.000			6.620			-2.207
69605.000			6.619			-2.206
69703.000			6.618			-2.206
69804.000			6.619			-2.206
69904.000			6.620			-2.207
70004.000			6.620			-2.207
70104.000			6.620			-2.207
70205.000			6.619			-2.206
70304.000			6.619			-2.206
70404.000			6.618			-2.206
70505.000			6.618			-2.206
70603.000			6.619			-2.206
70704.000			6.619			-2.206
70805.000			6.618			-2.206
70904.000			6.618			-2.206
71004.000			6.620			-2.207
71105.000			6.620			-2.207
71204.000			6.619			-2.206
71303.000			6.618			-2.206
71405.000			6.619			-2.206
71504.000			6.618			-2.206
71605.000			6.618			-2.206
71704.000			6.618			-2.206
71804.000			6.617			-2.206
71905.000			6.617			-2.206
72003.000			6.617			-2.206
72104.000			6.615			-2.205
72205.000			6.615			-2.205
72304.000			6.616			-2.205
72404.000			6.615			-2.205
72504.000			6.615			-2.205
72604.000			6.615			-2.205
72703.000			6.614			-2.205
72805.000			6.613			-2.204
72904.000			6.613			-2.204
73004.000			6.613			-2.204
73105.000			6.613			-2.204
73203.000			6.614			-2.205
73304.000			6.614			-2.205
73405.000			6.614			-2.205
73504.000			6.612			-2.204
73604.000			6.611			-2.204
73705.000			6.612			-2.204
73804.000			6.613			-2.204
73903.000			6.612			-2.204
