# Acquired on 10/01/2024 12:31:07 
# SPIDER: Creep_5mm_07714532B-1
# CREEP MEASUREMENT

# time [ms]		force [N]		stiffness [N/mm]
1.000			-17.492			-3.498
100.000			-18.624			-3.725
200.000			-19.032			-3.806
301.000			-19.028			-3.806
400.000			-18.936			-3.787
500.000			-18.861			-3.772
602.000			-18.747			-3.749
701.000			-18.699			-3.740
800.000			-18.658			-3.732
901.000			-18.623			-3.725
1000.000			-18.590			-3.718
1100.000			-18.559			-3.712
1201.000			-18.530			-3.706
1300.000			-18.480			-3.696
1402.000			-18.457			-3.691
1501.000			-18.436			-3.687
1600.000			-18.417			-3.683
1701.000			-18.398			-3.680
1800.000			-18.380			-3.676
1900.000			-18.363			-3.673
2001.000			-18.331			-3.666
2101.000			-18.315			-3.663
2201.000			-18.300			-3.660
2301.000			-18.286			-3.657
2400.000			-18.274			-3.655
2500.000			-18.260			-3.652
2601.000			-18.249			-3.650
2700.000			-18.236			-3.647
2800.000			-18.213			-3.643
2902.000			-18.201			-3.640
3001.000			-18.192			-3.638
3100.000			-18.182			-3.636
3201.000			-18.171			-3.634
3300.000			-18.161			-3.632
3400.000			-18.152			-3.630
3501.000			-18.134			-3.627
3601.000			-18.124			-3.625
3701.000			-18.116			-3.623
3801.000			-18.109			-3.622
3900.000			-18.100			-3.620
4000.000			-18.092			-3.618
4101.000			-18.083			-3.617
4200.000			-18.068			-3.614
4300.000			-18.061			-3.612
4402.000			-18.054			-3.611
4501.000			-18.048			-3.610
4600.000			-18.040			-3.608
4700.000			-18.033			-3.607
4800.000			-18.027			-3.605
4901.000			-18.020			-3.604
5000.000			-18.007			-3.601
5100.000			-18.002			-3.600
5202.000			-17.996			-3.599
5301.000			-17.990			-3.598
5400.000			-17.983			-3.597
5501.000			-17.978			-3.596
5600.000			-17.973			-3.595
5700.000			-17.960			-3.592
5801.000			-17.955			-3.591
5901.000			-17.949			-3.590
6001.000			-17.944			-3.589
6101.000			-17.939			-3.588
6200.000			-17.935			-3.587
6300.000			-17.930			-3.586
6401.000			-17.920			-3.584
6500.000			-17.915			-3.583
6600.000			-17.910			-3.582
6702.000			-17.905			-3.581
6801.000			-17.901			-3.580
6900.000			-17.897			-3.579
7001.000			-17.892			-3.578
7100.000			-17.883			-3.577
7200.000			-17.879			-3.576
7301.000			-17.874			-3.575
7400.000			-17.870			-3.574
7501.000			-17.866			-3.573
7602.000			-17.862			-3.572
7700.000			-17.857			-3.571
7800.000			-17.854			-3.571
7900.000			-17.846			-3.569
8000.000			-17.842			-3.568
8101.000			-17.838			-3.568
8200.000			-17.833			-3.567
8301.000			-17.829			-3.566
8402.000			-17.826			-3.565
8500.000			-17.822			-3.564
8600.000			-17.814			-3.563
8701.000			-17.811			-3.562
8800.000			-17.808			-3.562
8900.000			-17.806			-3.561
9001.000			-17.802			-3.560
9101.000			-17.798			-3.560
9201.000			-17.794			-3.559
9301.000			-17.789			-3.558
9400.000			-17.785			-3.557
9500.000			-17.781			-3.556
9601.000			-17.778			-3.556
9700.000			-17.775			-3.555
9800.000			-17.772			-3.554
9902.000			-17.768			-3.554
10001.000			-17.764			-3.553
10100.000			-17.759			-3.552
10201.000			-17.756			-3.551
10300.000			-17.752			-3.550
10400.000			-17.749			-3.550
10501.000			-17.746			-3.549
10600.000			-17.744			-3.549
10701.000			-17.741			-3.548
10802.000			-17.735			-3.547
10900.000			-17.733			-3.547
11000.000			-17.731			-3.546
11100.000			-17.726			-3.545
11200.000			-17.723			-3.545
11301.000			-17.721			-3.544
11400.000			-17.718			-3.544
11501.000			-17.713			-3.543
11602.000			-17.709			-3.542
11700.000			-17.707			-3.541
11800.000			-17.705			-3.541
11901.000			-17.701			-3.540
12000.000			-17.699			-3.540
12100.000			-17.696			-3.539
12201.000			-17.691			-3.538
12301.000			-17.689			-3.538
12401.000			-17.687			-3.537
12501.000			-17.684			-3.537
12600.000			-17.681			-3.536
12700.000			-17.678			-3.536
12801.000			-17.677			-3.535
12900.000			-17.675			-3.535
13000.000			-17.670			-3.534
13102.000			-17.667			-3.533
13201.000			-17.665			-3.533
13300.000			-17.663			-3.533
13401.000			-17.661			-3.532
13500.000			-17.657			-3.531
13600.000			-17.654			-3.531
13701.000			-17.651			-3.530
13800.000			-17.649			-3.530
13901.000			-17.647			-3.529
14002.000			-17.643			-3.529
14100.000			-17.641			-3.528
14200.000			-17.640			-3.528
14300.000			-17.638			-3.528
14400.000			-17.634			-3.527
14501.000			-17.631			-3.526
14600.000			-17.628			-3.526
14701.000			-17.627			-3.525
14802.000			-17.625			-3.525
14900.000			-17.623			-3.525
15000.000			-17.621			-3.524
15101.000			-17.617			-3.523
15200.000			-17.616			-3.523
15300.000			-17.614			-3.523
15401.000			-17.610			-3.522
15501.000			-17.608			-3.522
15601.000			-17.607			-3.521
15701.000			-17.605			-3.521
15800.000			-17.603			-3.521
15900.000			-17.599			-3.520
16001.000			-17.596			-3.519
16100.000			-17.595			-3.519
16200.000			-17.593			-3.519
16302.000			-17.590			-3.518
16401.000			-17.589			-3.518
16500.000			-17.587			-3.517
16601.000			-17.584			-3.517
16700.000			-17.582			-3.516
16800.000			-17.579			-3.516
16901.000			-17.578			-3.516
17000.000			-17.577			-3.515
17101.000			-17.575			-3.515
17202.000			-17.573			-3.515
17300.000			-17.569			-3.514
17400.000			-17.567			-3.513
17500.000			-17.565			-3.513
17600.000			-17.564			-3.513
17701.000			-17.562			-3.512
17800.000			-17.560			-3.512
17901.000			-17.558			-3.512
18002.000			-17.555			-3.511
18100.000			-17.553			-3.511
18200.000			-17.551			-3.510
18301.000			-17.550			-3.510
18400.000			-17.548			-3.510
18500.000			-17.546			-3.509
18601.000			-17.545			-3.509
18701.000			-17.544			-3.509
18801.000			-17.539			-3.508
18901.000			-17.538			-3.508
19000.000			-17.536			-3.507
19100.000			-17.535			-3.507
19201.000			-17.533			-3.507
19300.000			-17.532			-3.506
19400.000			-17.530			-3.506
19502.000			-17.527			-3.505
19601.000			-17.525			-3.505
19701.000			-17.524			-3.505
19801.000			-17.522			-3.504
19900.000			-17.520			-3.504
20000.000			-17.518			-3.504
20101.000			-17.516			-3.503
20200.000			-17.514			-3.503
20301.000			-17.513			-3.503
20402.000			-17.512			-3.502
20501.000			-17.509			-3.502
20600.000			-17.507			-3.501
20700.000			-17.507			-3.501
20800.000			-17.504			-3.501
20901.000			-17.503			-3.501
21000.000			-17.501			-3.500
21101.000			-17.500			-3.500
21202.000			-17.497			-3.499
21300.000			-17.495			-3.499
21400.000			-17.493			-3.499
21501.000			-17.492			-3.498
21600.000			-17.491			-3.498
21700.000			-17.487			-3.497
21801.000			-17.487			-3.497
21901.000			-17.486			-3.497
22001.000			-17.484			-3.497
22101.000			-17.482			-3.496
22200.000			-17.481			-3.496
22300.000			-17.480			-3.496
22401.000			-17.478			-3.496
22500.000			-17.476			-3.495
22600.000			-17.475			-3.495
22702.000			-17.474			-3.495
22801.000			-17.473			-3.495
22900.000			-17.471			-3.494
23001.000			-17.469			-3.494
23100.000			-17.467			-3.493
23200.000			-17.465			-3.493
23301.000			-17.464			-3.493
23400.000			-17.462			-3.492
23501.000			-17.460			-3.492
23602.000			-17.460			-3.492
23700.000			-17.459			-3.492
23800.000			-17.458			-3.492
23900.000			-17.455			-3.491
24000.000			-17.453			-3.491
24101.000			-17.451			-3.490
24200.000			-17.451			-3.490
24301.000			-17.450			-3.490
24402.000			-17.448			-3.490
24500.000			-17.447			-3.489
24600.000			-17.445			-3.489
24701.000			-17.443			-3.489
24800.000			-17.442			-3.488
24900.000			-17.441			-3.488
25001.000			-17.440			-3.488
25101.000			-17.439			-3.488
25201.000			-17.438			-3.488
25301.000			-17.435			-3.487
25400.000			-17.433			-3.487
25500.000			-17.432			-3.486
25601.000			-17.433			-3.487
25700.000			-17.430			-3.486
25800.000			-17.429			-3.486
25902.000			-17.427			-3.485
26001.000			-17.425			-3.485
26100.000			-17.424			-3.485
26201.000			-17.423			-3.485
26300.000			-17.422			-3.484
26400.000			-17.421			-3.484
26501.000			-17.420			-3.484
26600.000			-17.419			-3.484
26701.000			-17.417			-3.483
26802.000			-17.414			-3.483
26900.000			-17.413			-3.483
27000.000			-17.412			-3.482
27100.000			-17.412			-3.482
27200.000			-17.409			-3.482
27301.000			-17.408			-3.482
27400.000			-17.407			-3.481
27501.000			-17.405			-3.481
27602.000			-17.404			-3.481
27700.000			-17.404			-3.481
27800.000			-17.402			-3.480
27901.000			-17.400			-3.480
28000.000			-17.399			-3.480
28100.000			-17.397			-3.479
28201.000			-17.395			-3.479
28301.000			-17.393			-3.479
28401.000			-17.394			-3.479
28501.000			-17.394			-3.479
28600.000			-17.393			-3.479
28700.000			-17.392			-3.478
28801.000			-17.389			-3.478
28900.000			-17.387			-3.477
29000.000			-17.385			-3.477
29102.000			-17.385			-3.477
29201.000			-17.384			-3.477
29300.000			-17.384			-3.477
29401.000			-17.382			-3.476
29500.000			-17.381			-3.476
29600.000			-17.380			-3.476
29701.000			-17.377			-3.475
29800.000			-17.376			-3.475
29901.000			-17.374			-3.475
30002.000			-17.374			-3.475
30100.000			-17.374			-3.475
30200.000			-17.373			-3.475
30300.000			-17.372			-3.474
30400.000			-17.369			-3.474
30501.000			-17.368			-3.474
30600.000			-17.367			-3.473
30701.000			-17.367			-3.473
30802.000			-17.365			-3.473
30900.000			-17.364			-3.473
31000.000			-17.364			-3.473
31101.000			-17.361			-3.472
31200.000			-17.361			-3.472
31300.000			-17.359			-3.472
31401.000			-17.359			-3.472
31501.000			-17.358			-3.472
31601.000			-17.357			-3.471
31701.000			-17.356			-3.471
31800.000			-17.355			-3.471
31900.000			-17.353			-3.471
32001.000			-17.352			-3.470
32100.000			-17.350			-3.470
32200.000			-17.349			-3.470
32302.000			-17.348			-3.470
32401.000			-17.348			-3.470
32500.000			-17.347			-3.469
32601.000			-17.344			-3.469
32700.000			-17.344			-3.469
32800.000			-17.344			-3.469
32901.000			-17.343			-3.469
33000.000			-17.342			-3.468
33101.000			-17.341			-3.468
33202.000			-17.340			-3.468
33300.000			-17.337			-3.467
33400.000			-17.335			-3.467
33500.000			-17.335			-3.467
33600.000			-17.335			-3.467
33701.000			-17.334			-3.467
33800.000			-17.332			-3.466
33901.000			-17.332			-3.466
34002.000			-17.330			-3.466
34100.000			-17.329			-3.466
34200.000			-17.329			-3.466
34301.000			-17.328			-3.466
34400.000			-17.327			-3.465
34500.000			-17.325			-3.465
34602.000			-17.324			-3.465
34701.000			-17.323			-3.465
34800.000			-17.322			-3.464
34901.000			-17.320			-3.464
35000.000			-17.320			-3.464
35100.000			-17.319			-3.464
35201.000			-17.318			-3.464
35300.000			-17.318			-3.464
35401.000			-17.316			-3.463
35502.000			-17.315			-3.463
35600.000			-17.315			-3.463
35700.000			-17.315			-3.463
35801.000			-17.312			-3.462
35900.000			-17.311			-3.462
36000.000			-17.311			-3.462
36101.000			-17.310			-3.462
36201.000			-17.308			-3.462
36301.000			-17.308			-3.462
36401.000			-17.307			-3.461
36500.000			-17.306			-3.461
36600.000			-17.304			-3.461
36700.000			-17.303			-3.461
36800.000			-17.303			-3.461
36901.000			-17.300			-3.460
37001.000			-17.300			-3.460
37101.000			-17.300			-3.460
37201.000			-17.298			-3.460
37300.000			-17.298			-3.460
37400.000			-17.296			-3.459
37501.000			-17.296			-3.459
37600.000			-17.295			-3.459
37700.000			-17.293			-3.459
37801.000			-17.292			-3.458
37901.000			-17.291			-3.458
38001.000			-17.290			-3.458
38101.000			-17.289			-3.458
38200.000			-17.289			-3.458
38300.000			-17.288			-3.458
38401.000			-17.287			-3.457
38500.000			-17.287			-3.457
38600.000			-17.285			-3.457
38702.000			-17.284			-3.457
38801.000			-17.283			-3.457
38900.000			-17.283			-3.457
39001.000			-17.282			-3.456
39100.000			-17.280			-3.456
39200.000			-17.279			-3.456
39301.000			-17.279			-3.456
39400.000			-17.278			-3.456
39501.000			-17.278			-3.456
39602.000			-17.277			-3.455
39700.000			-17.275			-3.455
39800.000			-17.274			-3.455
39900.000			-17.274			-3.455
40000.000			-17.273			-3.455
40101.000			-17.272			-3.454
40200.000			-17.271			-3.454
40301.000			-17.270			-3.454
40402.000			-17.270			-3.454
40500.000			-17.268			-3.454
40600.000			-17.267			-3.453
40701.000			-17.267			-3.453
40800.000			-17.266			-3.453
40900.000			-17.265			-3.453
41001.000			-17.264			-3.453
41101.000			-17.263			-3.453
41201.000			-17.262			-3.452
41301.000			-17.261			-3.452
41400.000			-17.261			-3.452
41500.000			-17.260			-3.452
41601.000			-17.260			-3.452
41700.000			-17.259			-3.452
41800.000			-17.259			-3.452
41902.000			-17.257			-3.451
42001.000			-17.255			-3.451
42100.000			-17.255			-3.451
42201.000			-17.254			-3.451
42300.000			-17.254			-3.451
42400.000			-17.252			-3.450
42501.000			-17.251			-3.450
42600.000			-17.250			-3.450
42701.000			-17.250			-3.450
42802.000			-17.247			-3.449
42900.000			-17.246			-3.449
43000.000			-17.245			-3.449
43100.000			-17.245			-3.449
43200.000			-17.244			-3.449
43301.000			-17.244			-3.449
43400.000			-17.243			-3.449
43501.000			-17.241			-3.448
43602.000			-17.240			-3.448
43700.000			-17.240			-3.448
43800.000			-17.239			-3.448
43901.000			-17.239			-3.448
44000.000			-17.239			-3.448
44100.000			-17.237			-3.447
44201.000			-17.236			-3.447
44301.000			-17.234			-3.447
44401.000			-17.234			-3.447
44501.000			-17.232			-3.446
44600.000			-17.232			-3.446
44700.000			-17.232			-3.446
44801.000			-17.232			-3.446
44900.000			-17.230			-3.446
45000.000			-17.229			-3.446
45102.000			-17.230			-3.446
45201.000			-17.230			-3.446
45300.000			-17.229			-3.446
45401.000			-17.228			-3.446
45500.000			-17.227			-3.445
45600.000			-17.225			-3.445
45701.000			-17.225			-3.445
45800.000			-17.224			-3.445
45901.000			-17.223			-3.445
46002.000			-17.222			-3.444
46100.000			-17.221			-3.444
46200.000			-17.220			-3.444
46300.000			-17.221			-3.444
46400.000			-17.220			-3.444
46501.000			-17.219			-3.444
46601.000			-17.217			-3.443
46701.000			-17.218			-3.444
46801.000			-17.218			-3.444
46900.000			-17.216			-3.443
47000.000			-17.215			-3.443
47101.000			-17.215			-3.443
47200.000			-17.213			-3.443
47300.000			-17.212			-3.442
47402.000			-17.212			-3.442
47501.000			-17.212			-3.442
47600.000			-17.211			-3.442
47701.000			-17.210			-3.442
47800.000			-17.209			-3.442
47900.000			-17.209			-3.442
48001.000			-17.208			-3.442
48100.000			-17.207			-3.441
48201.000			-17.207			-3.441
48302.000			-17.207			-3.441
48401.000			-17.206			-3.441
48500.000			-17.205			-3.441
48601.000			-17.204			-3.441
48700.000			-17.204			-3.441
48800.000			-17.203			-3.441
48901.000			-17.202			-3.440
49001.000			-17.201			-3.440
49101.000			-17.200			-3.440
49201.000			-17.200			-3.440
49300.000			-17.198			-3.440
49400.000			-17.197			-3.439
49500.000			-17.197			-3.439
49600.000			-17.195			-3.439
49701.000			-17.195			-3.439
49800.000			-17.195			-3.439
49901.000			-17.195			-3.439
50002.000			-17.192			-3.438
50100.000			-17.192			-3.438
50200.000			-17.192			-3.438
50301.000			-17.191			-3.438
50400.000			-17.190			-3.438
50500.000			-17.189			-3.438
50601.000			-17.188			-3.438
50701.000			-17.187			-3.437
50801.000			-17.187			-3.437
50901.000			-17.187			-3.437
51000.000			-17.186			-3.437
51100.000			-17.185			-3.437
51201.000			-17.184			-3.437
51300.000			-17.184			-3.437
51400.000			-17.183			-3.437
51502.000			-17.182			-3.436
51601.000			-17.180			-3.436
51700.000			-17.180			-3.436
51801.000			-17.180			-3.436
51900.000			-17.180			-3.436
52000.000			-17.179			-3.436
52101.000			-17.179			-3.436
52200.000			-17.177			-3.435
52301.000			-17.176			-3.435
52402.000			-17.175			-3.435
52500.000			-17.175			-3.435
52600.000			-17.175			-3.435
52700.000			-17.174			-3.435
52800.000			-17.173			-3.435
52901.000			-17.173			-3.435
53000.000			-17.172			-3.434
53101.000			-17.170			-3.434
53202.000			-17.170			-3.434
53300.000			-17.169			-3.434
53400.000			-17.169			-3.434
53501.000			-17.168			-3.434
53600.000			-17.168			-3.434
53700.000			-17.168			-3.434
53801.000			-17.166			-3.433
53901.000			-17.166			-3.433
54001.000			-17.165			-3.433
54101.000			-17.165			-3.433
54200.000			-17.164			-3.433
54300.000			-17.163			-3.433
54401.000			-17.163			-3.433
54500.000			-17.163			-3.433
54600.000			-17.162			-3.432
54702.000			-17.161			-3.432
54801.000			-17.160			-3.432
54900.000			-17.160			-3.432
55001.000			-17.159			-3.432
55100.000			-17.159			-3.432
55200.000			-17.158			-3.432
55301.000			-17.158			-3.432
55400.000			-17.157			-3.431
55501.000			-17.156			-3.431
55602.000			-17.155			-3.431
55700.000			-17.154			-3.431
55800.000			-17.154			-3.431
55900.000			-17.152			-3.430
56000.000			-17.152			-3.430
56101.000			-17.153			-3.431
56201.000			-17.152			-3.430
56301.000			-17.153			-3.431
56402.000			-17.152			-3.430
56500.000			-17.151			-3.430
56600.000			-17.150			-3.430
56701.000			-17.150			-3.430
56800.000			-17.149			-3.430
56900.000			-17.148			-3.430
57001.000			-17.147			-3.429
57101.000			-17.146			-3.429
57201.000			-17.145			-3.429
57301.000			-17.145			-3.429
57400.000			-17.145			-3.429
57500.000			-17.145			-3.429
57601.000			-17.144			-3.429
57700.000			-17.143			-3.429
57800.000			-17.142			-3.428
57902.000			-17.142			-3.428
58001.000			-17.141			-3.428
58100.000			-17.140			-3.428
58201.000			-17.139			-3.428
58300.000			-17.140			-3.428
58400.000			-17.140			-3.428
58501.000			-17.138			-3.428
58600.000			-17.137			-3.427
58701.000			-17.136			-3.427
58802.000			-17.135			-3.427
58900.000			-17.136			-3.427
59000.000			-17.134			-3.427
59100.000			-17.133			-3.427
59200.000			-17.133			-3.427
59301.000			-17.133			-3.427
59400.000			-17.132			-3.426
59501.000			-17.131			-3.426
59602.000			-17.129			-3.426
59700.000			-17.129			-3.426
59800.000			-17.128			-3.426
59901.000			-17.127			-3.425
60000.000			-17.127			-3.425
60100.000			-17.127			-3.425
60201.000			-17.125			-3.425
60301.000			-17.125			-3.425
60401.000			-17.124			-3.425
60501.000			-17.123			-3.425
60600.000			-17.123			-3.425
60700.000			-17.123			-3.425
60801.000			-17.122			-3.424
60900.000			-17.120			-3.424
61000.000			-17.120			-3.424
61102.000			-17.120			-3.424
61201.000			-17.120			-3.424
61300.000			-17.119			-3.424
61401.000			-17.119			-3.424
61500.000			-17.117			-3.423
61600.000			-17.117			-3.423
61701.000			-17.117			-3.423
61801.000			-17.115			-3.423
61901.000			-17.115			-3.423
62001.000			-17.114			-3.423
62100.000			-17.114			-3.423
62200.000			-17.113			-3.423
62300.000			-17.112			-3.422
62400.000			-17.111			-3.422
62501.000			-17.111			-3.422
62601.000			-17.111			-3.422
62701.000			-17.110			-3.422
62801.000			-17.110			-3.422
62900.000			-17.109			-3.422
63000.000			-17.110			-3.422
63101.000			-17.109			-3.422
63200.000			-17.108			-3.422
63300.000			-17.109			-3.422
63402.000			-17.108			-3.422
63501.000			-17.108			-3.422
63600.000			-17.109			-3.422
63701.000			-17.109			-3.422
63800.000			-17.106			-3.421
63900.000			-17.105			-3.421
64001.000			-17.106			-3.421
64100.000			-17.106			-3.421
64201.000			-17.104			-3.421
64302.000			-17.105			-3.421
64400.000			-17.104			-3.421
64500.000			-17.103			-3.421
64601.000			-17.102			-3.420
64700.000			-17.101			-3.420
64800.000			-17.101			-3.420
64901.000			-17.101			-3.420
65001.000			-17.101			-3.420
65101.000			-17.100			-3.420
65201.000			-17.100			-3.420
65300.000			-17.099			-3.420
65400.000			-17.099			-3.420
65500.000			-17.097			-3.419
65600.000			-17.097			-3.419
65701.000			-17.097			-3.419
65801.000			-17.097			-3.419
65901.000			-17.097			-3.419
66001.000			-17.094			-3.419
66100.000			-17.095			-3.419
66200.000			-17.095			-3.419
66301.000			-17.095			-3.419
66400.000			-17.094			-3.419
66500.000			-17.092			-3.418
66602.000			-17.092			-3.418
66701.000			-17.091			-3.418
66800.000			-17.090			-3.418
66901.000			-17.090			-3.418
67000.000			-17.090			-3.418
67100.000			-17.090			-3.418
67201.000			-17.089			-3.418
67300.000			-17.088			-3.418
67401.000			-17.088			-3.418
67502.000			-17.087			-3.417
67601.000			-17.086			-3.417
67700.000			-17.086			-3.417
67801.000			-17.086			-3.417
67900.000			-17.085			-3.417
68000.000			-17.084			-3.417
68101.000			-17.084			-3.417
68200.000			-17.083			-3.417
68301.000			-17.082			-3.416
68402.000			-17.082			-3.416
68500.000			-17.081			-3.416
68600.000			-17.081			-3.416
68700.000			-17.080			-3.416
68800.000			-17.079			-3.416
