# Acquired on 25/01/2024 16:43:56 
# SPIDER: Creep_7mm_GRPCNT1454A-1
# CREEP MEASUREMENT

# time [ms]		force [N]		stiffness [N/mm]
1.000			-19.827			-2.832
104.000			-20.084			-2.869
203.000			-20.013			-2.859
305.000			-19.853			-2.836
404.000			-19.732			-2.819
504.000			-19.635			-2.805
605.000			-19.553			-2.793
703.000			-19.416			-2.774
804.000			-19.359			-2.766
905.000			-19.308			-2.758
1004.000			-19.260			-2.751
1104.000			-19.216			-2.745
1205.000			-19.176			-2.739
1304.000			-19.138			-2.734
1403.000			-19.103			-2.729
1505.000			-19.038			-2.720
1604.000			-19.009			-2.716
1705.000			-18.981			-2.712
1804.000			-18.954			-2.708
1903.000			-18.928			-2.704
2005.000			-18.903			-2.700
2104.000			-18.881			-2.697
2204.000			-18.837			-2.691
2305.000			-18.817			-2.688
2404.000			-18.798			-2.685
2504.000			-18.779			-2.683
2604.000			-18.759			-2.680
2704.000			-18.742			-2.677
2804.000			-18.725			-2.675
2905.000			-18.694			-2.671
3004.000			-18.679			-2.668
3104.000			-18.663			-2.666
3205.000			-18.647			-2.664
3303.000			-18.633			-2.662
3404.000			-18.619			-2.660
3505.000			-18.606			-2.658
3604.000			-18.580			-2.654
3704.000			-18.567			-2.652
3804.000			-18.555			-2.651
3904.000			-18.544			-2.649
4004.000			-18.533			-2.648
4105.000			-18.521			-2.646
4204.000			-18.509			-2.644
4304.000			-18.498			-2.643
4405.000			-18.477			-2.640
4503.000			-18.467			-2.638
4604.000			-18.457			-2.637
4705.000			-18.448			-2.635
4804.000			-18.438			-2.634
4905.000			-18.429			-2.633
5004.000			-18.419			-2.631
5104.000			-18.400			-2.629
5204.000			-18.391			-2.627
5304.000			-18.384			-2.626
5404.000			-18.376			-2.625
5505.000			-18.366			-2.624
5604.000			-18.358			-2.623
5703.000			-18.350			-2.621
5805.000			-18.334			-2.619
5904.000			-18.326			-2.618
6004.000			-18.319			-2.617
6105.000			-18.312			-2.616
6204.000			-18.305			-2.615
6304.000			-18.299			-2.614
6404.000			-18.291			-2.613
6504.000			-18.277			-2.611
6604.000			-18.269			-2.610
6705.000			-18.262			-2.609
6804.000			-18.255			-2.608
6904.000			-18.249			-2.607
7005.000			-18.242			-2.606
7103.000			-18.236			-2.605
7204.000			-18.230			-2.604
7305.000			-18.218			-2.603
7404.000			-18.212			-2.602
7504.000			-18.206			-2.601
7604.000			-18.199			-2.600
7704.000			-18.194			-2.599
7804.000			-18.189			-2.598
7904.000			-18.183			-2.598
8004.000			-18.171			-2.596
8105.000			-18.166			-2.595
8204.000			-18.160			-2.594
8303.000			-18.155			-2.594
8405.000			-18.150			-2.593
8504.000			-18.144			-2.592
8604.000			-18.139			-2.591
8705.000			-18.129			-2.590
8804.000			-18.124			-2.589
8904.000			-18.118			-2.588
9004.000			-18.113			-2.588
9104.000			-18.109			-2.587
9204.000			-18.104			-2.586
9305.000			-18.099			-2.586
9404.000			-18.091			-2.584
9503.000			-18.085			-2.584
9605.000			-18.080			-2.583
9704.000			-18.076			-2.582
9804.000			-18.072			-2.582
9905.000			-18.067			-2.581
10004.000			-18.063			-2.580
10104.000			-18.058			-2.580
10204.000			-18.050			-2.579
10304.000			-18.045			-2.578
10404.000			-18.042			-2.577
10505.000			-18.038			-2.577
10604.000			-18.033			-2.576
10703.000			-18.028			-2.575
10805.000			-18.023			-2.575
10904.000			-18.016			-2.574
11004.000			-18.011			-2.573
11105.000			-18.006			-2.572
11204.000			-18.002			-2.572
11305.000			-17.997			-2.571
11403.000			-17.993			-2.570
11504.000			-17.990			-2.570
11605.000			-17.981			-2.569
11704.000			-17.977			-2.568
11804.000			-17.974			-2.568
11905.000			-17.971			-2.567
12004.000			-17.966			-2.567
12103.000			-17.963			-2.566
12205.000			-17.960			-2.566
12304.000			-17.952			-2.565
12404.000			-17.949			-2.564
12505.000			-17.946			-2.564
12604.000			-17.942			-2.563
12704.000			-17.938			-2.563
12804.000			-17.934			-2.562
12904.000			-17.931			-2.562
13004.000			-17.924			-2.561
13105.000			-17.921			-2.560
13204.000			-17.918			-2.560
13304.000			-17.915			-2.559
13405.000			-17.913			-2.559
13503.000			-17.909			-2.558
13604.000			-17.905			-2.558
13705.000			-17.903			-2.558
13804.000			-17.897			-2.557
13904.000			-17.894			-2.556
14005.000			-17.891			-2.556
14104.000			-17.886			-2.555
14203.000			-17.883			-2.555
14305.000			-17.881			-2.554
14404.000			-17.879			-2.554
14505.000			-17.872			-2.553
14604.000			-17.868			-2.553
14704.000			-17.865			-2.552
14805.000			-17.863			-2.552
14903.000			-17.860			-2.551
15004.000			-17.857			-2.551
15105.000			-17.855			-2.551
15204.000			-17.850			-2.550
15304.000			-17.847			-2.550
15405.000			-17.844			-2.549
15504.000			-17.841			-2.549
15603.000			-17.839			-2.548
15705.000			-17.836			-2.548
15804.000			-17.833			-2.548
15904.000			-17.828			-2.547
16005.000			-17.825			-2.546
16104.000			-17.822			-2.546
16204.000			-17.820			-2.546
16304.000			-17.817			-2.545
16404.000			-17.815			-2.545
16504.000			-17.812			-2.545
16605.000			-17.809			-2.544
16704.000			-17.804			-2.543
16804.000			-17.802			-2.543
16905.000			-17.799			-2.543
17003.000			-17.796			-2.542
17104.000			-17.794			-2.542
17205.000			-17.792			-2.542
17304.000			-17.790			-2.541
17404.000			-17.784			-2.541
17504.000			-17.781			-2.540
17604.000			-17.779			-2.540
17703.000			-17.777			-2.540
17804.000			-17.774			-2.539
17904.000			-17.772			-2.539
18005.000			-17.769			-2.538
18104.000			-17.764			-2.538
18204.000			-17.762			-2.537
18305.000			-17.760			-2.537
18403.000			-17.757			-2.537
18504.000			-17.754			-2.536
18605.000			-17.751			-2.536
18704.000			-17.750			-2.536
18804.000			-17.746			-2.535
18905.000			-17.742			-2.535
19004.000			-17.741			-2.534
19103.000			-17.739			-2.534
19205.000			-17.736			-2.534
19304.000			-17.733			-2.533
19404.000			-17.731			-2.533
19505.000			-17.729			-2.533
19604.000			-17.725			-2.532
19704.000			-17.723			-2.532
19804.000			-17.720			-2.531
19904.000			-17.717			-2.531
20004.000			-17.715			-2.531
20105.000			-17.713			-2.530
20204.000			-17.710			-2.530
20303.000			-17.706			-2.529
20405.000			-17.705			-2.529
20504.000			-17.702			-2.529
20604.000			-17.700			-2.529
20705.000			-17.697			-2.528
20804.000			-17.695			-2.528
20905.000			-17.693			-2.528
21003.000			-17.689			-2.527
21104.000			-17.687			-2.527
21205.000			-17.685			-2.526
21304.000			-17.682			-2.526
21404.000			-17.681			-2.526
21505.000			-17.680			-2.526
21604.000			-17.677			-2.525
21703.000			-17.674			-2.525
21805.000			-17.671			-2.524
21904.000			-17.670			-2.524
22004.000			-17.667			-2.524
22105.000			-17.665			-2.524
22204.000			-17.664			-2.523
22304.000			-17.662			-2.523
22404.000			-17.660			-2.523
22504.000			-17.657			-2.522
22604.000			-17.655			-2.522
22705.000			-17.653			-2.522
22804.000			-17.652			-2.522
22904.000			-17.650			-2.521
23005.000			-17.649			-2.521
23103.000			-17.646			-2.521
23204.000			-17.642			-2.520
23305.000			-17.641			-2.520
23404.000			-17.639			-2.520
23504.000			-17.637			-2.520
23605.000			-17.634			-2.519
23704.000			-17.634			-2.519
23803.000			-17.633			-2.519
23905.000			-17.629			-2.518
24004.000			-17.627			-2.518
24105.000			-17.626			-2.518
24204.000			-17.623			-2.518
24304.000			-17.621			-2.517
24405.000			-17.621			-2.517
24503.000			-17.618			-2.517
24604.000			-17.615			-2.516
24705.000			-17.612			-2.516
24804.000			-17.610			-2.516
24904.000			-17.609			-2.516
25004.000			-17.607			-2.515
25104.000			-17.605			-2.515
25203.000			-17.604			-2.515
25305.000			-17.602			-2.515
25404.000			-17.600			-2.514
25504.000			-17.598			-2.514
25605.000			-17.596			-2.514
25703.000			-17.594			-2.513
25804.000			-17.593			-2.513
25904.000			-17.592			-2.513
26004.000			-17.589			-2.513
26104.000			-17.586			-2.512
26205.000			-17.584			-2.512
26304.000			-17.583			-2.512
26404.000			-17.581			-2.512
26505.000			-17.578			-2.511
26603.000			-17.578			-2.511
26704.000			-17.576			-2.511
26805.000			-17.571			-2.510
26904.000			-17.570			-2.510
27004.000			-17.568			-2.510
27104.000			-17.567			-2.510
27204.000			-17.565			-2.509
27303.000			-17.562			-2.509
27404.000			-17.560			-2.509
27504.000			-17.557			-2.508
27605.000			-17.556			-2.508
27704.000			-17.554			-2.508
27804.000			-17.553			-2.508
27905.000			-17.551			-2.507
28003.000			-17.549			-2.507
28104.000			-17.548			-2.507
28205.000			-17.547			-2.507
28304.000			-17.543			-2.506
28404.000			-17.541			-2.506
28505.000			-17.540			-2.506
28604.000			-17.539			-2.506
28703.000			-17.538			-2.505
28805.000			-17.536			-2.505
28904.000			-17.535			-2.505
29004.000			-17.532			-2.505
29105.000			-17.531			-2.504
29204.000			-17.530			-2.504
29304.000			-17.529			-2.504
29404.000			-17.528			-2.504
29504.000			-17.527			-2.504
29604.000			-17.525			-2.504
29705.000			-17.522			-2.503
29804.000			-17.521			-2.503
29904.000			-17.519			-2.503
30005.000			-17.518			-2.503
30103.000			-17.517			-2.502
30204.000			-17.516			-2.502
30305.000			-17.514			-2.502
30404.000			-17.513			-2.502
30505.000			-17.511			-2.502
30603.000			-17.510			-2.501
30704.000			-17.509			-2.501
30805.000			-17.508			-2.501
30904.000			-17.506			-2.501
31004.000			-17.505			-2.501
31105.000			-17.504			-2.501
31204.000			-17.500			-2.500
31303.000			-17.499			-2.500
31405.000			-17.499			-2.500
31504.000			-17.497			-2.500
31604.000			-17.494			-2.499
31705.000			-17.493			-2.499
31804.000			-17.493			-2.499
31904.000			-17.491			-2.499
32004.000			-17.489			-2.498
32104.000			-17.488			-2.498
32204.000			-17.487			-2.498
32305.000			-17.485			-2.498
32404.000			-17.484			-2.498
32504.000			-17.484			-2.498
32605.000			-17.481			-2.497
32703.000			-17.479			-2.497
32804.000			-17.478			-2.497
32905.000			-17.476			-2.497
33004.000			-17.474			-2.496
33104.000			-17.473			-2.496
33205.000			-17.473			-2.496
33304.000			-17.471			-2.496
33403.000			-17.470			-2.496
33505.000			-17.468			-2.495
33604.000			-17.467			-2.495
33705.000			-17.466			-2.495
33804.000			-17.465			-2.495
33904.000			-17.464			-2.495
34005.000			-17.461			-2.494
34103.000			-17.460			-2.494
34204.000			-17.459			-2.494
34305.000			-17.459			-2.494
34404.000			-17.457			-2.494
34504.000			-17.456			-2.494
34605.000			-17.453			-2.493
34704.000			-17.452			-2.493
34803.000			-17.450			-2.493
34905.000			-17.448			-2.493
35004.000			-17.447			-2.492
35104.000			-17.446			-2.492
35205.000			-17.445			-2.492
35304.000			-17.443			-2.492
35404.000			-17.443			-2.492
35504.000			-17.441			-2.492
35604.000			-17.440			-2.491
35704.000			-17.438			-2.491
35805.000			-17.437			-2.491
35904.000			-17.436			-2.491
36004.000			-17.434			-2.491
36105.000			-17.432			-2.490
36203.000			-17.431			-2.490
36304.000			-17.429			-2.490
36405.000			-17.428			-2.490
36504.000			-17.427			-2.490
36604.000			-17.426			-2.489
36703.000			-17.425			-2.489
36804.000			-17.424			-2.489
36905.000			-17.421			-2.489
37004.000			-17.420			-2.489
37104.000			-17.418			-2.488
37205.000			-17.417			-2.488
37304.000			-17.416			-2.488
37403.000			-17.417			-2.488
37505.000			-17.415			-2.488
37604.000			-17.413			-2.488
37704.000			-17.410			-2.487
37805.000			-17.409			-2.487
37904.000			-17.409			-2.487
38004.000			-17.408			-2.487
38104.000			-17.407			-2.487
38204.000			-17.406			-2.487
38304.000			-17.404			-2.486
38405.000			-17.403			-2.486
38504.000			-17.401			-2.486
38604.000			-17.400			-2.486
38705.000			-17.400			-2.486
38803.000			-17.399			-2.486
38904.000			-17.398			-2.485
39005.000			-17.396			-2.485
39104.000			-17.394			-2.485
39204.000			-17.393			-2.485
39305.000			-17.393			-2.485
39404.000			-17.392			-2.485
39503.000			-17.390			-2.484
39605.000			-17.389			-2.484
39704.000			-17.388			-2.484
39804.000			-17.386			-2.484
39905.000			-17.385			-2.484
40004.000			-17.385			-2.484
40105.000			-17.383			-2.483
40203.000			-17.381			-2.483
40304.000			-17.381			-2.483
40405.000			-17.380			-2.483
40504.000			-17.379			-2.483
40604.000			-17.375			-2.482
40705.000			-17.375			-2.482
40804.000			-17.375			-2.482
40903.000			-17.373			-2.482
41005.000			-17.373			-2.482
41104.000			-17.373			-2.482
41204.000			-17.371			-2.482
41305.000			-17.369			-2.481
41404.000			-17.367			-2.481
41504.000			-17.366			-2.481
41604.000			-17.366			-2.481
41704.000			-17.365			-2.481
41804.000			-17.363			-2.480
41905.000			-17.362			-2.480
42004.000			-17.359			-2.480
42103.000			-17.359			-2.480
42205.000			-17.358			-2.480
42304.000			-17.357			-2.480
42404.000			-17.355			-2.479
42505.000			-17.355			-2.479
42604.000			-17.354			-2.479
42704.000			-17.352			-2.479
42804.000			-17.352			-2.479
42904.000			-17.351			-2.479
43004.000			-17.349			-2.478
43104.000			-17.347			-2.478
43204.000			-17.346			-2.478
43305.000			-17.346			-2.478
43404.000			-17.345			-2.478
43503.000			-17.344			-2.478
43605.000			-17.343			-2.478
43704.000			-17.342			-2.477
43804.000			-17.342			-2.477
43905.000			-17.341			-2.477
44004.000			-17.340			-2.477
44104.000			-17.338			-2.477
44204.000			-17.336			-2.477
44304.000			-17.335			-2.476
44404.000			-17.335			-2.476
44505.000			-17.334			-2.476
44604.000			-17.333			-2.476
44704.000			-17.332			-2.476
44805.000			-17.331			-2.476
44903.000			-17.329			-2.476
45004.000			-17.328			-2.475
45105.000			-17.327			-2.475
45204.000			-17.327			-2.475
45304.000			-17.325			-2.475
45404.000			-17.324			-2.475
45504.000			-17.323			-2.475
45603.000			-17.321			-2.474
45705.000			-17.322			-2.475
45804.000			-17.321			-2.474
45904.000			-17.319			-2.474
46005.000			-17.318			-2.474
46103.000			-17.317			-2.474
46204.000			-17.317			-2.474
46305.000			-17.316			-2.474
46404.000			-17.315			-2.474
46505.000			-17.313			-2.473
46604.000			-17.312			-2.473
46704.000			-17.311			-2.473
46804.000			-17.310			-2.473
46904.000			-17.309			-2.473
47004.000			-17.308			-2.473
47105.000			-17.307			-2.472
47204.000			-17.306			-2.472
47304.000			-17.305			-2.472
47405.000			-17.304			-2.472
47503.000			-17.303			-2.472
47604.000			-17.301			-2.472
47705.000			-17.301			-2.472
47804.000			-17.300			-2.471
47904.000			-17.298			-2.471
48005.000			-17.296			-2.471
48104.000			-17.296			-2.471
48203.000			-17.295			-2.471
48305.000			-17.295			-2.471
48404.000			-17.295			-2.471
48504.000			-17.293			-2.470
48605.000			-17.291			-2.470
48704.000			-17.291			-2.470
48804.000			-17.290			-2.470
48904.000			-17.289			-2.470
49004.000			-17.289			-2.470
49104.000			-17.287			-2.470
49205.000			-17.287			-2.470
49304.000			-17.285			-2.469
49404.000			-17.285			-2.469
49505.000			-17.285			-2.469
49603.000			-17.283			-2.469
49705.000			-17.282			-2.469
49804.000			-17.281			-2.469
49904.000			-17.280			-2.469
50005.000			-17.279			-2.468
50104.000			-17.278			-2.468
50204.000			-17.276			-2.468
50304.000			-17.275			-2.468
50404.000			-17.276			-2.468
50504.000			-17.276			-2.468
50605.000			-17.275			-2.468
50704.000			-17.273			-2.468
50804.000			-17.271			-2.467
50905.000			-17.270			-2.467
51003.000			-17.270			-2.467
51104.000			-17.269			-2.467
51205.000			-17.268			-2.467
51304.000			-17.267			-2.467
51404.000			-17.265			-2.466
51504.000			-17.265			-2.466
51604.000			-17.263			-2.466
51704.000			-17.263			-2.466
51805.000			-17.263			-2.466
51904.000			-17.262			-2.466
52004.000			-17.261			-2.466
52105.000			-17.259			-2.466
52203.000			-17.257			-2.465
52304.000			-17.257			-2.465
52405.000			-17.257			-2.465
52504.000			-17.256			-2.465
52604.000			-17.255			-2.465
52704.000			-17.255			-2.465
52804.000			-17.254			-2.465
52903.000			-17.252			-2.465
53004.000			-17.252			-2.465
53104.000			-17.252			-2.465
53205.000			-17.250			-2.464
53304.000			-17.249			-2.464
53404.000			-17.248			-2.464
53505.000			-17.247			-2.464
53603.000			-17.245			-2.464
53704.000			-17.244			-2.463
53805.000			-17.244			-2.463
53904.000			-17.243			-2.463
54004.000			-17.242			-2.463
54104.000			-17.242			-2.463
54204.000			-17.241			-2.463
54303.000			-17.239			-2.463
54405.000			-17.238			-2.463
54504.000			-17.237			-2.462
54604.000			-17.237			-2.462
54705.000			-17.236			-2.462
54803.000			-17.235			-2.462
54904.000			-17.234			-2.462
55005.000			-17.233			-2.462
55104.000			-17.232			-2.462
55204.000			-17.231			-2.462
55305.000			-17.230			-2.461
55404.000			-17.230			-2.461
55503.000			-17.229			-2.461
55605.000			-17.228			-2.461
55704.000			-17.227			-2.461
55804.000			-17.226			-2.461
55905.000			-17.225			-2.461
56004.000			-17.225			-2.461
56105.000			-17.224			-2.461
56203.000			-17.222			-2.460
56304.000			-17.221			-2.460
56405.000			-17.220			-2.460
56504.000			-17.220			-2.460
56604.000			-17.220			-2.460
56705.000			-17.218			-2.460
56804.000			-17.218			-2.460
56903.000			-17.218			-2.460
57005.000			-17.217			-2.460
57104.000			-17.216			-2.459
57204.000			-17.215			-2.459
57305.000			-17.215			-2.459
57404.000			-17.213			-2.459
57504.000			-17.211			-2.459
57604.000			-17.210			-2.459
57704.000			-17.210			-2.459
57804.000			-17.209			-2.458
57905.000			-17.209			-2.458
58004.000			-17.206			-2.458
58103.000			-17.205			-2.458
58205.000			-17.203			-2.458
58304.000			-17.203			-2.458
58404.000			-17.202			-2.457
58505.000			-17.202			-2.457
58604.000			-17.200			-2.457
58704.000			-17.198			-2.457
58804.000			-17.198			-2.457
58904.000			-17.197			-2.457
59004.000			-17.196			-2.457
59104.000			-17.194			-2.456
59204.000			-17.194			-2.456
59305.000			-17.194			-2.456
59404.000			-17.192			-2.456
59503.000			-17.191			-2.456
59605.000			-17.190			-2.456
59704.000			-17.190			-2.456
59804.000			-17.189			-2.456
59905.000			-17.189			-2.456
60004.000			-17.189			-2.456
60104.000			-17.187			-2.455
60204.000			-17.186			-2.455
60304.000			-17.185			-2.455
60403.000			-17.184			-2.455
60505.000			-17.183			-2.455
60604.000			-17.183			-2.455
60704.000			-17.183			-2.455
60805.000			-17.182			-2.455
60903.000			-17.181			-2.454
61004.000			-17.180			-2.454
61105.000			-17.179			-2.454
61204.000			-17.178			-2.454
61304.000			-17.178			-2.454
61405.000			-17.178			-2.454
61504.000			-17.178			-2.454
61603.000			-17.175			-2.454
61705.000			-17.175			-2.454
61804.000			-17.174			-2.453
61904.000			-17.174			-2.453
62005.000			-17.175			-2.454
62104.000			-17.175			-2.454
62204.000			-17.173			-2.453
62303.000			-17.172			-2.453
62404.000			-17.171			-2.453
62505.000			-17.171			-2.453
62604.000			-17.170			-2.453
62704.000			-17.169			-2.453
62805.000			-17.169			-2.453
62904.000			-17.169			-2.453
63003.000			-17.168			-2.453
63105.000			-17.165			-2.452
63204.000			-17.166			-2.452
63304.000			-17.165			-2.452
63405.000			-17.165			-2.452
63504.000			-17.163			-2.452
63604.000			-17.162			-2.452
63704.000			-17.161			-2.452
63804.000			-17.159			-2.451
63904.000			-17.158			-2.451
64005.000			-17.157			-2.451
64104.000			-17.156			-2.451
64203.000			-17.156			-2.451
64305.000			-17.156			-2.451
64404.000			-17.155			-2.451
64504.000			-17.153			-2.450
64605.000			-17.153			-2.450
64704.000			-17.152			-2.450
64804.000			-17.150			-2.450
64904.000			-17.150			-2.450
65004.000			-17.149			-2.450
65104.000			-17.149			-2.450
65205.000			-17.148			-2.450
65304.000			-17.147			-2.450
65404.000			-17.146			-2.449
65505.000			-17.147			-2.450
65603.000			-17.146			-2.449
65705.000			-17.144			-2.449
65804.000			-17.144			-2.449
65904.000			-17.143			-2.449
66005.000			-17.141			-2.449
66104.000			-17.141			-2.449
66204.000			-17.141			-2.449
66304.000			-17.140			-2.449
66404.000			-17.139			-2.448
66504.000			-17.138			-2.448
66605.000			-17.137			-2.448
66704.000			-17.136			-2.448
66804.000			-17.135			-2.448
66905.000			-17.135			-2.448
67003.000			-17.134			-2.448
67104.000			-17.135			-2.448
67205.000			-17.134			-2.448
67304.000			-17.133			-2.448
67404.000			-17.132			-2.447
67505.000			-17.131			-2.447
67604.000			-17.131			-2.447
67703.000			-17.131			-2.447
67805.000			-17.130			-2.447
67904.000			-17.130			-2.447
68004.000			-17.130			-2.447
68105.000			-17.129			-2.447
68204.000			-17.129			-2.447
68304.000			-17.128			-2.447
68404.000			-17.126			-2.447
68504.000			-17.126			-2.447
68604.000			-17.127			-2.447
68704.000			-17.125			-2.446
68804.000			-17.125			-2.446
