# Acquired on 08/01/2024 16:03:23 
# SPIDER: Creep_-4mm_07714532C-2
# CREEP MEASUREMENT

# time [ms]		force [N]		stiffness [N/mm]
1.000			5.556			-1.389
101.000			6.189			-1.547
200.000			6.505			-1.626
300.000			6.559			-1.640
401.000			6.539			-1.635
500.000			6.523			-1.631
601.000			6.509			-1.627
702.000			6.497			-1.624
800.000			6.487			-1.622
900.000			6.476			-1.619
1001.000			6.461			-1.615
1100.000			6.452			-1.613
1200.000			6.445			-1.611
1301.000			6.439			-1.610
1401.000			6.433			-1.608
1501.000			6.428			-1.607
1601.000			6.422			-1.606
1700.000			6.411			-1.603
1800.000			6.407			-1.602
1900.000			6.402			-1.601
2000.000			6.399			-1.600
2102.000			6.396			-1.599
2201.000			6.393			-1.598
2300.000			6.389			-1.597
2401.000			6.385			-1.596
2500.000			6.378			-1.595
2600.000			6.375			-1.594
2701.000			6.372			-1.593
2800.000			6.369			-1.592
2901.000			6.366			-1.591
3002.000			6.363			-1.591
3100.000			6.360			-1.590
3200.000			6.355			-1.589
3301.000			6.352			-1.588
3400.000			6.349			-1.587
3500.000			6.346			-1.587
3601.000			6.344			-1.586
3701.000			6.343			-1.586
3801.000			6.340			-1.585
3901.000			6.335			-1.584
4000.000			6.333			-1.583
4100.000			6.332			-1.583
4201.000			6.330			-1.583
4300.000			6.329			-1.582
4401.000			6.326			-1.581
4502.000			6.323			-1.581
4600.000			6.319			-1.580
4700.000			6.317			-1.579
4801.000			6.316			-1.579
4900.000			6.314			-1.579
5000.000			6.312			-1.578
5100.000			6.311			-1.578
5201.000			6.309			-1.577
5302.000			6.308			-1.577
5400.000			6.305			-1.576
5500.000			6.304			-1.576
5601.000			6.302			-1.576
5700.000			6.300			-1.575
5800.000			6.299			-1.575
5902.000			6.298			-1.575
6001.000			6.296			-1.574
6100.000			6.292			-1.573
6201.000			6.291			-1.573
6300.000			6.290			-1.572
6400.000			6.288			-1.572
6501.000			6.286			-1.572
6600.000			6.286			-1.571
6701.000			6.284			-1.571
6802.000			6.282			-1.571
6900.000			6.281			-1.570
7000.000			6.279			-1.570
7101.000			6.278			-1.569
7200.000			6.276			-1.569
7300.000			6.276			-1.569
7401.000			6.275			-1.569
7501.000			6.273			-1.568
7601.000			6.271			-1.568
7701.000			6.270			-1.568
7800.000			6.269			-1.567
7900.000			6.268			-1.567
8001.000			6.267			-1.567
8100.000			6.265			-1.566
8200.000			6.264			-1.566
8302.000			6.262			-1.566
8401.000			6.261			-1.565
8501.000			6.260			-1.565
8600.000			6.259			-1.565
8700.000			6.259			-1.565
8801.000			6.257			-1.564
8900.000			6.255			-1.564
9000.000			6.254			-1.563
9102.000			6.253			-1.563
9201.000			6.253			-1.563
9300.000			6.251			-1.563
9401.000			6.250			-1.562
9500.000			6.248			-1.562
9600.000			6.249			-1.562
9701.000			6.247			-1.562
9801.000			6.246			-1.561
9901.000			6.244			-1.561
10002.000			6.243			-1.561
10100.000			6.243			-1.561
10200.000			6.243			-1.561
10301.000			6.242			-1.560
10400.000			6.240			-1.560
10500.000			6.240			-1.560
10602.000			6.239			-1.560
10701.000			6.238			-1.559
10800.000			6.237			-1.559
10901.000			6.236			-1.559
11000.000			6.235			-1.559
11100.000			6.234			-1.558
11201.000			6.233			-1.558
11300.000			6.232			-1.558
11402.000			6.231			-1.558
11501.000			6.230			-1.558
11600.000			6.231			-1.558
11701.000			6.229			-1.557
11800.000			6.228			-1.557
11900.000			6.226			-1.557
12001.000			6.226			-1.556
12100.000			6.226			-1.557
12201.000			6.225			-1.556
12302.000			6.224			-1.556
12400.000			6.224			-1.556
12500.000			6.223			-1.556
12601.000			6.221			-1.555
12700.000			6.221			-1.555
12800.000			6.221			-1.555
12901.000			6.219			-1.555
13001.000			6.218			-1.554
13101.000			6.217			-1.554
13201.000			6.218			-1.554
13300.000			6.215			-1.554
13400.000			6.215			-1.554
13501.000			6.215			-1.554
13600.000			6.214			-1.554
13700.000			6.213			-1.553
13802.000			6.212			-1.553
13901.000			6.212			-1.553
14000.000			6.212			-1.553
14101.000			6.210			-1.552
14200.000			6.208			-1.552
14300.000			6.208			-1.552
14401.000			6.207			-1.552
14501.000			6.207			-1.552
14602.000			6.207			-1.552
14701.000			6.207			-1.552
14800.000			6.205			-1.551
14901.000			6.205			-1.551
15000.000			6.204			-1.551
15100.000			6.203			-1.551
15201.000			6.203			-1.551
15301.000			6.202			-1.550
15401.000			6.202			-1.550
15501.000			6.201			-1.550
15600.000			6.200			-1.550
15700.000			6.200			-1.550
15801.000			6.199			-1.550
15900.000			6.197			-1.549
16000.000			6.197			-1.549
16101.000			6.197			-1.549
16201.000			6.196			-1.549
16301.000			6.197			-1.549
16401.000			6.195			-1.549
16500.000			6.194			-1.549
16600.000			6.194			-1.548
16701.000			6.192			-1.548
16800.000			6.192			-1.548
16900.000			6.192			-1.548
17002.000			6.191			-1.548
17101.000			6.191			-1.548
17200.000			6.190			-1.548
17301.000			6.190			-1.547
17400.000			6.190			-1.547
17500.000			6.189			-1.547
17601.000			6.188			-1.547
17700.000			6.188			-1.547
17802.000			6.186			-1.547
17901.000			6.186			-1.546
18001.000			6.185			-1.546
18101.000			6.185			-1.546
18200.000			6.185			-1.546
18300.000			6.184			-1.546
18401.000			6.181			-1.545
18500.000			6.181			-1.545
18601.000			6.182			-1.545
18702.000			6.182			-1.545
18800.000			6.181			-1.545
18900.000			6.181			-1.545
19001.000			6.182			-1.545
19100.000			6.180			-1.545
19200.000			6.179			-1.545
19301.000			6.177			-1.544
19401.000			6.176			-1.544
19501.000			6.176			-1.544
19601.000			6.177			-1.544
19700.000			6.177			-1.544
19800.000			6.176			-1.544
19901.000			6.175			-1.544
20000.000			6.175			-1.544
20100.000			6.175			-1.544
20201.000			6.174			-1.544
20301.000			6.173			-1.543
20401.000			6.172			-1.543
20501.000			6.172			-1.543
20600.000			6.172			-1.543
20700.000			6.172			-1.543
20801.000			6.172			-1.543
20900.000			6.170			-1.543
21002.000			6.170			-1.542
21101.000			6.170			-1.542
21201.000			6.170			-1.542
21301.000			6.169			-1.542
21400.000			6.169			-1.542
21500.000			6.168			-1.542
21601.000			6.167			-1.542
21700.000			6.167			-1.542
21801.000			6.165			-1.541
21902.000			6.166			-1.541
22001.000			6.166			-1.541
22100.000			6.164			-1.541
22201.000			6.164			-1.541
22300.000			6.164			-1.541
22400.000			6.163			-1.541
22501.000			6.163			-1.541
22601.000			6.162			-1.541
22701.000			6.161			-1.540
22801.000			6.162			-1.541
22900.000			6.161			-1.540
23000.000			6.160			-1.540
23101.000			6.160			-1.540
23200.000			6.159			-1.540
23300.000			6.159			-1.540
23402.000			6.159			-1.540
23501.000			6.158			-1.540
23600.000			6.158			-1.539
23701.000			6.158			-1.539
23800.000			6.157			-1.539
23900.000			6.156			-1.539
24001.000			6.156			-1.539
24100.000			6.155			-1.539
24202.000			6.154			-1.539
24301.000			6.155			-1.539
24401.000			6.155			-1.539
24501.000			6.154			-1.539
24600.000			6.155			-1.539
24700.000			6.155			-1.539
24801.000			6.152			-1.538
24900.000			6.152			-1.538
25001.000			6.152			-1.538
25102.000			6.151			-1.538
25200.000			6.151			-1.538
25300.000			6.151			-1.538
25401.000			6.151			-1.538
25500.000			6.151			-1.538
25600.000			6.150			-1.538
25701.000			6.149			-1.537
25801.000			6.149			-1.537
25901.000			6.148			-1.537
26001.000			6.148			-1.537
26100.000			6.147			-1.537
26200.000			6.147			-1.537
26301.000			6.147			-1.537
26400.000			6.147			-1.537
26500.000			6.147			-1.537
26602.000			6.146			-1.536
26701.000			6.145			-1.536
26800.000			6.145			-1.536
26901.000			6.145			-1.536
27000.000			6.144			-1.536
27100.000			6.145			-1.536
27201.000			6.145			-1.536
27300.000			6.143			-1.536
27402.000			6.142			-1.536
27501.000			6.142			-1.536
27600.000			6.142			-1.535
27701.000			6.141			-1.535
27800.000			6.142			-1.535
27900.000			6.141			-1.535
28001.000			6.140			-1.535
28100.000			6.140			-1.535
28201.000			6.140			-1.535
28302.000			6.140			-1.535
28400.000			6.139			-1.535
28500.000			6.139			-1.535
28601.000			6.138			-1.535
28700.000			6.140			-1.535
28800.000			6.140			-1.535
28901.000			6.138			-1.534
29001.000			6.136			-1.534
29101.000			6.137			-1.534
29201.000			6.137			-1.534
29300.000			6.135			-1.534
29400.000			6.135			-1.534
29501.000			6.136			-1.534
29600.000			6.137			-1.534
29700.000			6.136			-1.534
29802.000			6.134			-1.534
29901.000			6.135			-1.534
30000.000			6.135			-1.534
30101.000			6.134			-1.534
30200.000			6.133			-1.533
30300.000			6.132			-1.533
30401.000			6.131			-1.533
30500.000			6.132			-1.533
30602.000			6.132			-1.533
30701.000			6.132			-1.533
30800.000			6.131			-1.533
30901.000			6.131			-1.533
31000.000			6.131			-1.533
31100.000			6.131			-1.533
31201.000			6.131			-1.533
31301.000			6.129			-1.532
31401.000			6.129			-1.532
31501.000			6.129			-1.532
31600.000			6.129			-1.532
31700.000			6.129			-1.532
31801.000			6.129			-1.532
31900.000			6.128			-1.532
32000.000			6.127			-1.532
32102.000			6.127			-1.532
32201.000			6.127			-1.532
32300.000			6.125			-1.531
32401.000			6.126			-1.531
32500.000			6.126			-1.531
32600.000			6.126			-1.531
32701.000			6.126			-1.531
32800.000			6.124			-1.531
32901.000			6.125			-1.531
33002.000			6.125			-1.531
33100.000			6.124			-1.531
33200.000			6.123			-1.531
33301.000			6.123			-1.531
33400.000			6.123			-1.531
33500.000			6.123			-1.531
33601.000			6.123			-1.531
33701.000			6.124			-1.531
33802.000			6.123			-1.531
33900.000			6.121			-1.530
34000.000			6.121			-1.530
34101.000			6.121			-1.530
34200.000			6.122			-1.530
34300.000			6.121			-1.530
34401.000			6.119			-1.530
34501.000			6.119			-1.530
34601.000			6.120			-1.530
34701.000			6.120			-1.530
34800.000			6.119			-1.530
34900.000			6.120			-1.530
35001.000			6.119			-1.530
35100.000			6.119			-1.530
35200.000			6.118			-1.530
35302.000			6.118			-1.530
35401.000			6.117			-1.529
35500.000			6.117			-1.529
35601.000			6.117			-1.529
35700.000			6.117			-1.529
35800.000			6.116			-1.529
35901.000			6.115			-1.529
36000.000			6.115			-1.529
36101.000			6.115			-1.529
36202.000			6.115			-1.529
36300.000			6.115			-1.529
36400.000			6.115			-1.529
36501.000			6.115			-1.529
36600.000			6.114			-1.528
36700.000			6.114			-1.528
36802.000			6.113			-1.528
36901.000			6.112			-1.528
37000.000			6.112			-1.528
37100.000			6.112			-1.528
37200.000			6.112			-1.528
37301.000			6.112			-1.528
37400.000			6.112			-1.528
37500.000			6.111			-1.528
37602.000			6.112			-1.528
37701.000			6.111			-1.528
37800.000			6.110			-1.527
37901.000			6.110			-1.528
38000.000			6.110			-1.528
38100.000			6.110			-1.527
38201.000			6.109			-1.527
38300.000			6.110			-1.527
38401.000			6.109			-1.527
38502.000			6.108			-1.527
38600.000			6.108			-1.527
38700.000			6.109			-1.527
38801.000			6.108			-1.527
38900.000			6.108			-1.527
39000.000			6.108			-1.527
39101.000			6.108			-1.527
39201.000			6.107			-1.527
39301.000			6.106			-1.526
39401.000			6.107			-1.527
39500.000			6.106			-1.527
39600.000			6.106			-1.526
39701.000			6.106			-1.527
39800.000			6.107			-1.527
39901.000			6.105			-1.526
40002.000			6.105			-1.526
40100.000			6.106			-1.526
40200.000			6.104			-1.526
40300.000			6.105			-1.526
40400.000			6.105			-1.526
40501.000			6.104			-1.526
40600.000			6.104			-1.526
40701.000			6.104			-1.526
40802.000			6.103			-1.526
40900.000			6.103			-1.526
41000.000			6.102			-1.525
41101.000			6.102			-1.525
41200.000			6.101			-1.525
41300.000			6.102			-1.525
41402.000			6.102			-1.526
41501.000			6.102			-1.525
41600.000			6.101			-1.525
41701.000			6.101			-1.525
41800.000			6.100			-1.525
41900.000			6.101			-1.525
42001.000			6.101			-1.525
42100.000			6.100			-1.525
42201.000			6.100			-1.525
42302.000			6.101			-1.525
42400.000			6.100			-1.525
42500.000			6.099			-1.525
42601.000			6.098			-1.525
42700.000			6.099			-1.525
42800.000			6.098			-1.524
42901.000			6.098			-1.524
43001.000			6.098			-1.524
43101.000			6.098			-1.525
43201.000			6.098			-1.524
43300.000			6.097			-1.524
43400.000			6.096			-1.524
43500.000			6.097			-1.524
43600.000			6.096			-1.524
43701.000			6.096			-1.524
43801.000			6.096			-1.524
43901.000			6.095			-1.524
44001.000			6.096			-1.524
44100.000			6.095			-1.524
44200.000			6.093			-1.523
44301.000			6.094			-1.523
44400.000			6.094			-1.524
44500.000			6.094			-1.524
44602.000			6.093			-1.523
44701.000			6.094			-1.523
44800.000			6.094			-1.523
44901.000			6.094			-1.523
45000.000			6.094			-1.523
45100.000			6.094			-1.523
45201.000			6.092			-1.523
45301.000			6.093			-1.523
45401.000			6.091			-1.523
45501.000			6.091			-1.523
45600.000			6.091			-1.523
45700.000			6.092			-1.523
45801.000			6.092			-1.523
45900.000			6.091			-1.523
46000.000			6.090			-1.523
46102.000			6.091			-1.523
46201.000			6.091			-1.523
46300.000			6.090			-1.523
46401.000			6.091			-1.523
46500.000			6.091			-1.523
46600.000			6.090			-1.523
46700.000			6.090			-1.522
46800.000			6.089			-1.522
46902.000			6.088			-1.522
47001.000			6.088			-1.522
47100.000			6.088			-1.522
47201.000			6.088			-1.522
47300.000			6.088			-1.522
47400.000			6.089			-1.522
47501.000			6.087			-1.522
47600.000			6.087			-1.522
47701.000			6.087			-1.522
47802.000			6.087			-1.522
47900.000			6.087			-1.522
48000.000			6.086			-1.522
48101.000			6.086			-1.522
48200.000			6.086			-1.522
48300.000			6.086			-1.522
48401.000			6.086			-1.522
48501.000			6.086			-1.522
48601.000			6.086			-1.522
48701.000			6.086			-1.521
48800.000			6.085			-1.521
48900.000			6.085			-1.521
49001.000			6.085			-1.521
49100.000			6.084			-1.521
49200.000			6.084			-1.521
49302.000			6.084			-1.521
49401.000			6.084			-1.521
49500.000			6.083			-1.521
49601.000			6.083			-1.521
49700.000			6.084			-1.521
49800.000			6.084			-1.521
49900.000			6.083			-1.521
50000.000			6.083			-1.521
50102.000			6.083			-1.521
50201.000			6.083			-1.521
50300.000			6.083			-1.521
50401.000			6.081			-1.520
50500.000			6.082			-1.521
50600.000			6.082			-1.521
50701.000			6.081			-1.520
50801.000			6.081			-1.520
50901.000			6.081			-1.520
51001.000			6.080			-1.520
51100.000			6.079			-1.520
51200.000			6.080			-1.520
51301.000			6.079			-1.520
51400.000			6.079			-1.520
51500.000			6.079			-1.520
51602.000			6.079			-1.520
51701.000			6.079			-1.520
51800.000			6.079			-1.520
51901.000			6.079			-1.520
52000.000			6.079			-1.520
52100.000			6.078			-1.520
52201.000			6.078			-1.520
52300.000			6.078			-1.520
52401.000			6.078			-1.520
52502.000			6.078			-1.520
52600.000			6.078			-1.519
52700.000			6.077			-1.519
52801.000			6.077			-1.519
52900.000			6.076			-1.519
53000.000			6.076			-1.519
53100.000			6.076			-1.519
53201.000			6.076			-1.519
53302.000			6.076			-1.519
53400.000			6.075			-1.519
53500.000			6.076			-1.519
53601.000			6.077			-1.519
53700.000			6.077			-1.519
53800.000			6.076			-1.519
53901.000			6.076			-1.519
54001.000			6.076			-1.519
54101.000			6.074			-1.519
54201.000			6.074			-1.519
54300.000			6.074			-1.518
54400.000			6.074			-1.518
54501.000			6.074			-1.519
54600.000			6.074			-1.519
54700.000			6.074			-1.519
54802.000			6.074			-1.519
54901.000			6.073			-1.518
55000.000			6.073			-1.518
55101.000			6.073			-1.518
55200.000			6.073			-1.518
55300.000			6.072			-1.518
55401.000			6.072			-1.518
55501.000			6.072			-1.518
55601.000			6.072			-1.518
55701.000			6.072			-1.518
55800.000			6.072			-1.518
55900.000			6.072			-1.518
56001.000			6.071			-1.518
56100.000			6.070			-1.518
56200.000			6.070			-1.518
56302.000			6.070			-1.517
56401.000			6.070			-1.518
56501.000			6.069			-1.517
56600.000			6.070			-1.517
56700.000			6.070			-1.518
56801.000			6.071			-1.518
56900.000			6.070			-1.518
57000.000			6.069			-1.517
57102.000			6.069			-1.517
57201.000			6.069			-1.517
57300.000			6.069			-1.517
57401.000			6.069			-1.517
57500.000			6.069			-1.517
57600.000			6.069			-1.517
57701.000			6.069			-1.517
57800.000			6.068			-1.517
57900.000			6.067			-1.517
58002.000			6.069			-1.517
58101.000			6.068			-1.517
58200.000			6.068			-1.517
58301.000			6.068			-1.517
58400.000			6.068			-1.517
58500.000			6.067			-1.517
58601.000			6.067			-1.517
58700.000			6.067			-1.517
58801.000			6.067			-1.517
58902.000			6.066			-1.517
59000.000			6.066			-1.517
59100.000			6.066			-1.517
59201.000			6.066			-1.517
59300.000			6.066			-1.516
59400.000			6.066			-1.516
59500.000			6.065			-1.516
59601.000			6.066			-1.516
59702.000			6.065			-1.516
59800.000			6.065			-1.516
59900.000			6.064			-1.516
60001.000			6.064			-1.516
60100.000			6.064			-1.516
60200.000			6.064			-1.516
60301.000			6.063			-1.516
60401.000			6.063			-1.516
60501.000			6.063			-1.516
60601.000			6.064			-1.516
60700.000			6.063			-1.516
60800.000			6.062			-1.516
60901.000			6.063			-1.516
61000.000			6.063			-1.516
61101.000			6.063			-1.516
61202.000			6.063			-1.516
61300.000			6.062			-1.516
61400.000			6.061			-1.515
61501.000			6.061			-1.515
61600.000			6.061			-1.515
61700.000			6.061			-1.515
61801.000			6.062			-1.516
61901.000			6.062			-1.515
62001.000			6.060			-1.515
62101.000			6.061			-1.515
62200.000			6.061			-1.515
62300.000			6.060			-1.515
62401.000			6.060			-1.515
62500.000			6.060			-1.515
62600.000			6.061			-1.515
62702.000			6.060			-1.515
62801.000			6.060			-1.515
62901.000			6.059			-1.515
63000.000			6.059			-1.515
63100.000			6.058			-1.515
63201.000			6.059			-1.515
63300.000			6.059			-1.515
63401.000			6.059			-1.515
63502.000			6.058			-1.514
63601.000			6.057			-1.514
63700.000			6.058			-1.515
63801.000			6.059			-1.515
63900.000			6.058			-1.514
64000.000			6.058			-1.514
64101.000			6.058			-1.514
64201.000			6.057			-1.514
64301.000			6.057			-1.514
64401.000			6.057			-1.514
64500.000			6.057			-1.514
64600.000			6.057			-1.514
64701.000			6.058			-1.514
64800.000			6.056			-1.514
64900.000			6.056			-1.514
65002.000			6.056			-1.514
65101.000			6.056			-1.514
65200.000			6.056			-1.514
65301.000			6.057			-1.514
65400.000			6.057			-1.514
65500.000			6.057			-1.514
65601.000			6.056			-1.514
65700.000			6.056			-1.514
65802.000			6.055			-1.514
65901.000			6.055			-1.514
66000.000			6.054			-1.514
66101.000			6.055			-1.514
66200.000			6.055			-1.514
66300.000			6.054			-1.514
66401.000			6.054			-1.513
66500.000			6.054			-1.513
66601.000			6.053			-1.513
66702.000			6.053			-1.513
66800.000			6.053			-1.513
66900.000			6.054			-1.513
67001.000			6.054			-1.513
67100.000			6.052			-1.513
67200.000			6.052			-1.513
67301.000			6.052			-1.513
67401.000			6.053			-1.513
67501.000			6.053			-1.513
67601.000			6.053			-1.513
67700.000			6.052			-1.513
67800.000			6.052			-1.513
67901.000			6.053			-1.513
68000.000			6.052			-1.513
68100.000			6.052			-1.513
68202.000			6.052			-1.513
68301.000			6.052			-1.513
68400.000			6.052			-1.513
68501.000			6.052			-1.513
68600.000			6.052			-1.513
68700.000			6.051			-1.513
68801.000			6.050			-1.513
68900.000			6.051			-1.513
69002.000			6.051			-1.513
69101.000			6.051			-1.513
69200.000			6.050			-1.513
69301.000			6.050			-1.512
69400.000			6.050			-1.513
69500.000			6.051			-1.513
69601.000			6.049			-1.512
69700.000			6.049			-1.512
69801.000			6.050			-1.512
69902.000			6.049			-1.512
70000.000			6.048			-1.512
70100.000			6.048			-1.512
70201.000			6.049			-1.512
70300.000			6.048			-1.512
70400.000			6.047			-1.512
70501.000			6.047			-1.512
70601.000			6.047			-1.512
70701.000			6.048			-1.512
70801.000			6.048			-1.512
70900.000			6.048			-1.512
71000.000			6.047			-1.512
71101.000			6.047			-1.512
71200.000			6.047			-1.512
71300.000			6.047			-1.512
71402.000			6.047			-1.512
71501.000			6.046			-1.512
71600.000			6.045			-1.511
71701.000			6.045			-1.511
71800.000			6.046			-1.511
71900.000			6.045			-1.511
72001.000			6.045			-1.511
72101.000			6.045			-1.511
72202.000			6.046			-1.512
72301.000			6.046			-1.511
72400.000			6.046			-1.511
72501.000			6.046			-1.512
72600.000			6.045			-1.511
72700.000			6.045			-1.511
72801.000			6.045			-1.511
72901.000			6.044			-1.511
73001.000			6.044			-1.511
73102.000			6.044			-1.511
73200.000			6.044			-1.511
73300.000			6.044			-1.511
73401.000			6.044			-1.511
73500.000			6.044			-1.511
73600.000			6.043			-1.511
73702.000			6.044			-1.511
73801.000			6.044			-1.511
73901.000			6.044			-1.511
