# Acquired on 08/01/2024 16:47:10 
# SPIDER: Creep_6mm_07714532B-1
# CREEP MEASUREMENT

# time [ms]		force [N]		stiffness [N/mm]
0.000			-22.618			-3.770
100.000			-24.446			-4.074
201.000			-25.421			-4.237
302.000			-25.305			-4.218
400.000			-25.197			-4.199
500.000			-25.110			-4.185
601.000			-25.036			-4.173
700.000			-24.973			-4.162
800.000			-24.918			-4.153
902.000			-24.869			-4.145
1001.000			-24.783			-4.131
1101.000			-24.745			-4.124
1200.000			-24.709			-4.118
1300.000			-24.675			-4.113
1401.000			-24.645			-4.108
1500.000			-24.617			-4.103
1601.000			-24.591			-4.098
1702.000			-24.540			-4.090
1800.000			-24.518			-4.086
1900.000			-24.497			-4.083
2001.000			-24.476			-4.079
2100.000			-24.455			-4.076
2200.000			-24.436			-4.073
2301.000			-24.417			-4.070
2401.000			-24.383			-4.064
2501.000			-24.366			-4.061
2601.000			-24.350			-4.058
2700.000			-24.335			-4.056
2800.000			-24.320			-4.053
2901.000			-24.305			-4.051
3000.000			-24.292			-4.049
3100.000			-24.265			-4.044
3202.000			-24.252			-4.042
3301.000			-24.239			-4.040
3400.000			-24.227			-4.038
3501.000			-24.216			-4.036
3600.000			-24.204			-4.034
3700.000			-24.193			-4.032
3801.000			-24.182			-4.030
3900.000			-24.161			-4.027
4001.000			-24.150			-4.025
4101.000			-24.140			-4.023
4200.000			-24.130			-4.022
4301.000			-24.121			-4.020
4400.000			-24.112			-4.019
4500.000			-24.103			-4.017
4601.000			-24.085			-4.014
4701.000			-24.076			-4.013
4801.000			-24.067			-4.011
4901.000			-24.058			-4.010
5000.000			-24.050			-4.008
5100.000			-24.042			-4.007
5201.000			-24.034			-4.006
5300.000			-24.019			-4.003
5400.000			-24.011			-4.002
5502.000			-24.003			-4.001
5601.000			-23.996			-3.999
5700.000			-23.989			-3.998
5801.000			-23.983			-3.997
5900.000			-23.975			-3.996
6000.000			-23.962			-3.994
6101.000			-23.956			-3.993
6201.000			-23.948			-3.991
6301.000			-23.942			-3.990
6401.000			-23.935			-3.989
6500.000			-23.929			-3.988
6600.000			-23.923			-3.987
6701.000			-23.918			-3.986
6800.000			-23.905			-3.984
6900.000			-23.899			-3.983
7002.000			-23.893			-3.982
7101.000			-23.887			-3.981
7200.000			-23.881			-3.980
7301.000			-23.874			-3.979
7400.000			-23.869			-3.978
7501.000			-23.860			-3.977
7600.000			-23.855			-3.976
7700.000			-23.849			-3.975
7802.000			-23.843			-3.974
7901.000			-23.838			-3.973
8000.000			-23.833			-3.972
8101.000			-23.828			-3.971
8200.000			-23.819			-3.970
8300.000			-23.813			-3.969
8401.000			-23.807			-3.968
8501.000			-23.803			-3.967
8601.000			-23.799			-3.966
8701.000			-23.794			-3.966
8800.000			-23.790			-3.965
8900.000			-23.781			-3.964
9001.000			-23.776			-3.963
9100.000			-23.772			-3.962
9200.000			-23.768			-3.961
9302.000			-23.763			-3.961
9401.000			-23.758			-3.960
9500.000			-23.754			-3.959
9601.000			-23.746			-3.958
9700.000			-23.742			-3.957
9800.000			-23.738			-3.956
9901.000			-23.733			-3.956
10000.000			-23.729			-3.955
10101.000			-23.725			-3.954
10202.000			-23.721			-3.953
10300.000			-23.718			-3.953
10400.000			-23.710			-3.952
10501.000			-23.707			-3.951
10600.000			-23.704			-3.951
10701.000			-23.699			-3.950
10800.000			-23.695			-3.949
10901.000			-23.691			-3.948
11002.000			-23.687			-3.948
11100.000			-23.681			-3.947
11200.000			-23.677			-3.946
11301.000			-23.674			-3.946
11400.000			-23.670			-3.945
11500.000			-23.667			-3.944
11601.000			-23.663			-3.944
11701.000			-23.659			-3.943
11801.000			-23.652			-3.942
11901.000			-23.649			-3.941
12000.000			-23.646			-3.941
12100.000			-23.643			-3.941
12201.000			-23.639			-3.940
12300.000			-23.636			-3.939
12400.000			-23.633			-3.939
12502.000			-23.626			-3.938
12601.000			-23.623			-3.937
12700.000			-23.620			-3.937
12801.000			-23.616			-3.936
12900.000			-23.613			-3.935
13000.000			-23.610			-3.935
13101.000			-23.607			-3.934
13200.000			-23.604			-3.934
13301.000			-23.599			-3.933
13402.000			-23.595			-3.932
13500.000			-23.591			-3.932
13600.000			-23.589			-3.932
13701.000			-23.586			-3.931
13800.000			-23.582			-3.930
13901.000			-23.579			-3.930
14000.000			-23.574			-3.929
14101.000			-23.572			-3.929
14202.000			-23.569			-3.928
14300.000			-23.566			-3.928
14400.000			-23.563			-3.927
14501.000			-23.560			-3.927
14600.000			-23.557			-3.926
14700.000			-23.552			-3.925
14801.000			-23.549			-3.925
14901.000			-23.547			-3.925
15001.000			-23.545			-3.924
15101.000			-23.542			-3.924
15200.000			-23.539			-3.923
15300.000			-23.535			-3.923
15401.000			-23.531			-3.922
15500.000			-23.529			-3.921
15600.000			-23.526			-3.921
15702.000			-23.523			-3.921
15801.000			-23.521			-3.920
15900.000			-23.518			-3.920
16001.000			-23.515			-3.919
16100.000			-23.513			-3.919
16200.000			-23.508			-3.918
16301.000			-23.505			-3.918
16400.000			-23.503			-3.917
16501.000			-23.501			-3.917
16602.000			-23.499			-3.916
16700.000			-23.496			-3.916
16800.000			-23.494			-3.916
16901.000			-23.488			-3.915
17000.000			-23.486			-3.914
17101.000			-23.483			-3.914
17200.000			-23.481			-3.913
17301.000			-23.479			-3.913
17402.000			-23.477			-3.913
17500.000			-23.475			-3.913
17600.000			-23.470			-3.912
17701.000			-23.468			-3.911
17800.000			-23.465			-3.911
17900.000			-23.462			-3.910
18001.000			-23.461			-3.910
18101.000			-23.460			-3.910
18201.000			-23.457			-3.910
18301.000			-23.453			-3.909
18400.000			-23.451			-3.908
18500.000			-23.447			-3.908
18601.000			-23.445			-3.907
18700.000			-23.443			-3.907
18800.000			-23.442			-3.907
18902.000			-23.440			-3.907
19001.000			-23.438			-3.906
19100.000			-23.433			-3.906
19201.000			-23.431			-3.905
19300.000			-23.428			-3.905
19400.000			-23.427			-3.904
19501.000			-23.425			-3.904
19600.000			-23.422			-3.904
19701.000			-23.421			-3.903
19802.000			-23.416			-3.903
19900.000			-23.414			-3.902
20000.000			-23.412			-3.902
20101.000			-23.410			-3.902
20200.000			-23.409			-3.902
20301.000			-23.406			-3.901
20401.000			-23.404			-3.901
20501.000			-23.401			-3.900
20601.000			-23.399			-3.900
20700.000			-23.396			-3.899
20800.000			-23.394			-3.899
20901.000			-23.392			-3.899
21000.000			-23.391			-3.898
21100.000			-23.390			-3.898
21202.000			-23.386			-3.898
21301.000			-23.384			-3.897
21400.000			-23.381			-3.897
21501.000			-23.378			-3.896
21600.000			-23.378			-3.896
21700.000			-23.376			-3.896
21801.000			-23.373			-3.896
21900.000			-23.372			-3.895
22001.000			-23.369			-3.895
22102.000			-23.366			-3.894
22200.000			-23.365			-3.894
22300.000			-23.363			-3.894
22401.000			-23.361			-3.893
22500.000			-23.360			-3.893
22600.000			-23.358			-3.893
22701.000			-23.356			-3.893
22801.000			-23.354			-3.892
22901.000			-23.351			-3.892
23001.000			-23.348			-3.891
23100.000			-23.346			-3.891
23200.000			-23.344			-3.891
23301.000			-23.343			-3.890
23400.000			-23.340			-3.890
23501.000			-23.339			-3.890
23601.000			-23.337			-3.890
23701.000			-23.335			-3.889
23801.000			-23.334			-3.889
23900.000			-23.332			-3.889
24000.000			-23.330			-3.888
24101.000			-23.327			-3.888
24200.000			-23.324			-3.887
24300.000			-23.324			-3.887
24402.000			-23.323			-3.887
24501.000			-23.321			-3.887
24600.000			-23.318			-3.886
24701.000			-23.316			-3.886
24800.000			-23.311			-3.885
24900.000			-23.311			-3.885
25001.000			-23.310			-3.885
25100.000			-23.308			-3.885
25201.000			-23.306			-3.884
25302.000			-23.305			-3.884
25400.000			-23.303			-3.884
25500.000			-23.301			-3.883
25601.000			-23.298			-3.883
25700.000			-23.297			-3.883
25800.000			-23.295			-3.882
25901.000			-23.293			-3.882
26001.000			-23.292			-3.882
26101.000			-23.290			-3.882
26201.000			-23.289			-3.882
26300.000			-23.286			-3.881
26400.000			-23.284			-3.881
26501.000			-23.283			-3.880
26600.000			-23.281			-3.880
26701.000			-23.279			-3.880
26801.000			-23.279			-3.880
26901.000			-23.278			-3.880
27001.000			-23.274			-3.879
27100.000			-23.273			-3.879
27200.000			-23.271			-3.878
27301.000			-23.269			-3.878
27400.000			-23.268			-3.878
27500.000			-23.267			-3.878
27602.000			-23.265			-3.877
27701.000			-23.262			-3.877
27800.000			-23.260			-3.877
27901.000			-23.259			-3.876
28000.000			-23.257			-3.876
28100.000			-23.256			-3.876
28201.000			-23.255			-3.876
28300.000			-23.253			-3.875
28401.000			-23.252			-3.875
28502.000			-23.250			-3.875
28600.000			-23.248			-3.875
28700.000			-23.247			-3.874
28801.000			-23.245			-3.874
28900.000			-23.243			-3.874
29000.000			-23.243			-3.874
29101.000			-23.242			-3.874
29201.000			-23.237			-3.873
29301.000			-23.237			-3.873
29401.000			-23.235			-3.873
29500.000			-23.234			-3.872
29600.000			-23.233			-3.872
29701.000			-23.231			-3.872
29800.000			-23.229			-3.872
29901.000			-23.227			-3.871
30001.000			-23.226			-3.871
30101.000			-23.224			-3.871
30201.000			-23.222			-3.870
30300.000			-23.221			-3.870
30400.000			-23.219			-3.870
30501.000			-23.219			-3.870
30600.000			-23.216			-3.869
30700.000			-23.215			-3.869
30802.000			-23.214			-3.869
30901.000			-23.212			-3.869
31000.000			-23.212			-3.869
31101.000			-23.210			-3.868
31200.000			-23.208			-3.868
31300.000			-23.206			-3.868
31401.000			-23.204			-3.867
31501.000			-23.203			-3.867
31601.000			-23.202			-3.867
31701.000			-23.202			-3.867
31800.000			-23.201			-3.867
31900.000			-23.198			-3.866
32001.000			-23.197			-3.866
32100.000			-23.194			-3.866
32200.000			-23.193			-3.866
32302.000			-23.191			-3.865
32401.000			-23.191			-3.865
32500.000			-23.190			-3.865
32601.000			-23.188			-3.865
32700.000			-23.187			-3.864
32800.000			-23.185			-3.864
32901.000			-23.183			-3.864
33000.000			-23.182			-3.864
33102.000			-23.181			-3.864
33201.000			-23.179			-3.863
33300.000			-23.178			-3.863
33401.000			-23.178			-3.863
33500.000			-23.174			-3.862
33600.000			-23.173			-3.862
33701.000			-23.172			-3.862
33800.000			-23.172			-3.862
33901.000			-23.169			-3.862
34002.000			-23.168			-3.861
34100.000			-23.168			-3.861
34200.000			-23.167			-3.861
34301.000			-23.165			-3.861
34400.000			-23.164			-3.861
34500.000			-23.161			-3.860
34601.000			-23.161			-3.860
34701.000			-23.160			-3.860
34801.000			-23.158			-3.860
34901.000			-23.157			-3.859
35000.000			-23.155			-3.859
35100.000			-23.153			-3.859
35201.000			-23.152			-3.859
35300.000			-23.151			-3.859
35401.000			-23.150			-3.858
35502.000			-23.148			-3.858
35600.000			-23.147			-3.858
35700.000			-23.146			-3.858
35801.000			-23.145			-3.858
35900.000			-23.144			-3.857
36000.000			-23.143			-3.857
36101.000			-23.141			-3.857
36201.000			-23.141			-3.857
36302.000			-23.139			-3.857
36400.000			-23.136			-3.856
36500.000			-23.135			-3.856
36601.000			-23.135			-3.856
36700.000			-23.134			-3.856
36800.000			-23.133			-3.855
36901.000			-23.132			-3.855
37001.000			-23.130			-3.855
37101.000			-23.129			-3.855
37201.000			-23.127			-3.855
37300.000			-23.126			-3.854
37400.000			-23.125			-3.854
37501.000			-23.124			-3.854
37600.000			-23.124			-3.854
37700.000			-23.122			-3.854
37802.000			-23.120			-3.853
37901.000			-23.119			-3.853
38000.000			-23.117			-3.853
38101.000			-23.116			-3.853
38200.000			-23.115			-3.852
38300.000			-23.113			-3.852
38401.000			-23.113			-3.852
38500.000			-23.112			-3.852
38601.000			-23.110			-3.852
38702.000			-23.109			-3.852
38800.000			-23.108			-3.851
38900.000			-23.107			-3.851
39001.000			-23.106			-3.851
39100.000			-23.105			-3.851
39200.000			-23.104			-3.851
39302.000			-23.102			-3.850
39401.000			-23.101			-3.850
39501.000			-23.100			-3.850
39600.000			-23.098			-3.850
39700.000			-23.098			-3.850
39801.000			-23.097			-3.850
39900.000			-23.097			-3.849
40000.000			-23.095			-3.849
40101.000			-23.093			-3.849
40201.000			-23.092			-3.849
40301.000			-23.091			-3.848
40401.000			-23.090			-3.848
40500.000			-23.089			-3.848
40600.000			-23.089			-3.848
40701.000			-23.088			-3.848
40800.000			-23.085			-3.848
40901.000			-23.084			-3.847
41002.000			-23.083			-3.847
41101.000			-23.082			-3.847
41200.000			-23.081			-3.847
41301.000			-23.078			-3.846
41400.000			-23.078			-3.846
41500.000			-23.077			-3.846
41601.000			-23.075			-3.846
41701.000			-23.073			-3.846
41801.000			-23.074			-3.846
41901.000			-23.074			-3.846
42000.000			-23.073			-3.846
42100.000			-23.071			-3.845
42201.000			-23.069			-3.845
42300.000			-23.068			-3.845
42400.000			-23.067			-3.845
42502.000			-23.066			-3.844
42601.000			-23.065			-3.844
42701.000			-23.064			-3.844
42800.000			-23.064			-3.844
42900.000			-23.061			-3.843
43001.000			-23.062			-3.844
43100.000			-23.061			-3.843
43200.000			-23.060			-3.843
43302.000			-23.057			-3.843
43401.000			-23.056			-3.843
43500.000			-23.056			-3.843
43601.000			-23.055			-3.843
43700.000			-23.054			-3.842
43800.000			-23.052			-3.842
43901.000			-23.051			-3.842
44000.000			-23.049			-3.842
44101.000			-23.049			-3.841
44202.000			-23.048			-3.841
44300.000			-23.048			-3.841
44400.000			-23.045			-3.841
44501.000			-23.044			-3.841
44600.000			-23.044			-3.841
44700.000			-23.043			-3.840
44802.000			-23.042			-3.840
44901.000			-23.041			-3.840
45001.000			-23.040			-3.840
45101.000			-23.038			-3.840
45200.000			-23.037			-3.839
45300.000			-23.037			-3.840
45401.000			-23.037			-3.840
45500.000			-23.036			-3.839
45601.000			-23.035			-3.839
45702.000			-23.033			-3.839
45800.000			-23.031			-3.838
45901.000			-23.031			-3.838
46000.000			-23.030			-3.838
46100.000			-23.028			-3.838
46201.000			-23.028			-3.838
46300.000			-23.027			-3.838
46401.000			-23.026			-3.838
46502.000			-23.026			-3.838
46600.000			-23.023			-3.837
46700.000			-23.023			-3.837
46801.000			-23.022			-3.837
46900.000			-23.021			-3.837
47000.000			-23.021			-3.837
47101.000			-23.020			-3.837
47201.000			-23.019			-3.836
47301.000			-23.017			-3.836
47401.000			-23.016			-3.836
47500.000			-23.015			-3.836
47600.000			-23.013			-3.836
47701.000			-23.013			-3.835
47800.000			-23.013			-3.836
47900.000			-23.011			-3.835
48002.000			-23.009			-3.835
48101.000			-23.009			-3.835
48200.000			-23.008			-3.835
48301.000			-23.007			-3.834
48400.000			-23.007			-3.835
48500.000			-23.006			-3.834
48601.000			-23.005			-3.834
48700.000			-23.003			-3.834
48801.000			-23.003			-3.834
48902.000			-23.001			-3.833
49000.000			-23.000			-3.833
49101.000			-22.999			-3.833
49200.000			-22.999			-3.833
49300.000			-22.998			-3.833
49401.000			-22.998			-3.833
49500.000			-22.997			-3.833
49601.000			-22.995			-3.832
49702.000			-22.995			-3.832
49800.000			-22.993			-3.832
49900.000			-22.992			-3.832
50001.000			-22.991			-3.832
50100.000			-22.991			-3.832
50200.000			-22.990			-3.832
50301.000			-22.989			-3.832
50401.000			-22.988			-3.831
50501.000			-22.987			-3.831
50601.000			-22.986			-3.831
50700.000			-22.985			-3.831
50800.000			-22.984			-3.831
50901.000			-22.983			-3.830
51000.000			-22.981			-3.830
51100.000			-22.980			-3.830
51202.000			-22.980			-3.830
51301.000			-22.980			-3.830
51400.000			-22.979			-3.830
51501.000			-22.980			-3.830
51600.000			-22.976			-3.829
51700.000			-22.975			-3.829
51801.000			-22.975			-3.829
51900.000			-22.974			-3.829
52000.000			-22.973			-3.829
52102.000			-22.972			-3.829
52201.000			-22.972			-3.829
52301.000			-22.971			-3.829
52400.000			-22.968			-3.828
52500.000			-22.968			-3.828
52601.000			-22.967			-3.828
52700.000			-22.967			-3.828
52800.000			-22.967			-3.828
52902.000			-22.965			-3.828
53001.000			-22.964			-3.827
53100.000			-22.963			-3.827
53201.000			-22.962			-3.827
53300.000			-22.961			-3.827
53400.000			-22.960			-3.827
53501.000			-22.958			-3.826
53601.000			-22.958			-3.826
53701.000			-22.957			-3.826
53802.000			-22.958			-3.826
53900.000			-22.957			-3.826
54000.000			-22.956			-3.826
54101.000			-22.955			-3.826
54200.000			-22.954			-3.826
54300.000			-22.954			-3.826
54401.000			-22.953			-3.826
54501.000			-22.952			-3.825
54601.000			-22.951			-3.825
54701.000			-22.949			-3.825
54800.000			-22.949			-3.825
54900.000			-22.948			-3.825
55001.000			-22.948			-3.825
55100.000			-22.947			-3.824
55200.000			-22.945			-3.824
55302.000			-22.944			-3.824
55401.000			-22.944			-3.824
55501.000			-22.944			-3.824
55600.000			-22.943			-3.824
55700.000			-22.942			-3.824
55801.000			-22.941			-3.824
55900.000			-22.940			-3.823
56000.000			-22.937			-3.823
56102.000			-22.938			-3.823
56201.000			-22.937			-3.823
56300.000			-22.936			-3.823
56401.000			-22.935			-3.822
56500.000			-22.934			-3.822
56600.000			-22.934			-3.822
56701.000			-22.933			-3.822
56800.000			-22.932			-3.822
56901.000			-22.932			-3.822
57002.000			-22.930			-3.822
57100.000			-22.930			-3.822
57200.000			-22.930			-3.822
57301.000			-22.928			-3.821
57400.000			-22.927			-3.821
57500.000			-22.926			-3.821
57601.000			-22.925			-3.821
57701.000			-22.924			-3.821
57801.000			-22.923			-3.820
57902.000			-22.923			-3.821
58000.000			-22.923			-3.821
58100.000			-22.921			-3.820
58201.000			-22.920			-3.820
58300.000			-22.919			-3.820
58400.000			-22.918			-3.820
58501.000			-22.917			-3.820
58601.000			-22.918			-3.820
58702.000			-22.917			-3.819
58800.000			-22.915			-3.819
58900.000			-22.914			-3.819
59001.000			-22.915			-3.819
59100.000			-22.914			-3.819
59200.000			-22.912			-3.819
59301.000			-22.912			-3.819
59401.000			-22.912			-3.819
59501.000			-22.910			-3.818
59601.000			-22.909			-3.818
59700.000			-22.908			-3.818
59800.000			-22.908			-3.818
59901.000			-22.907			-3.818
60000.000			-22.906			-3.818
60100.000			-22.906			-3.818
60202.000			-22.905			-3.818
60301.000			-22.904			-3.817
60400.000			-22.903			-3.817
60501.000			-22.904			-3.817
60600.000			-22.903			-3.817
60700.000			-22.902			-3.817
60801.000			-22.901			-3.817
60900.000			-22.899			-3.817
61001.000			-22.899			-3.816
61102.000			-22.898			-3.816
61200.000			-22.898			-3.816
61300.000			-22.897			-3.816
61401.000			-22.896			-3.816
61500.000			-22.894			-3.816
61600.000			-22.893			-3.816
61701.000			-22.893			-3.816
61801.000			-22.893			-3.815
61902.000			-22.892			-3.815
62000.000			-22.891			-3.815
62100.000			-22.889			-3.815
62201.000			-22.890			-3.815
62300.000			-22.889			-3.815
62400.000			-22.889			-3.815
62501.000			-22.887			-3.815
62601.000			-22.887			-3.814
62701.000			-22.886			-3.814
62801.000			-22.885			-3.814
62900.000			-22.884			-3.814
63000.000			-22.884			-3.814
63101.000			-22.883			-3.814
63200.000			-22.882			-3.814
63300.000			-22.882			-3.814
63402.000			-22.881			-3.813
63501.000			-22.880			-3.813
63601.000			-22.879			-3.813
63701.000			-22.879			-3.813
63800.000			-22.878			-3.813
63900.000			-22.877			-3.813
64001.000			-22.877			-3.813
64100.000			-22.876			-3.813
64200.000			-22.875			-3.812
64302.000			-22.875			-3.812
64401.000			-22.874			-3.812
64500.000			-22.874			-3.812
64601.000			-22.873			-3.812
64700.000			-22.872			-3.812
64800.000			-22.871			-3.812
64901.000			-22.870			-3.812
65000.000			-22.869			-3.811
65102.000			-22.869			-3.811
65201.000			-22.868			-3.811
65300.000			-22.867			-3.811
65401.000			-22.867			-3.811
65500.000			-22.866			-3.811
65600.000			-22.865			-3.811
65701.000			-22.864			-3.811
65800.000			-22.864			-3.811
65901.000			-22.863			-3.810
66002.000			-22.862			-3.810
66100.000			-22.861			-3.810
66200.000			-22.860			-3.810
66301.000			-22.860			-3.810
66400.000			-22.860			-3.810
66500.000			-22.858			-3.810
66601.000			-22.858			-3.810
66701.000			-22.859			-3.810
66801.000			-22.857			-3.810
66902.000			-22.855			-3.809
67000.000			-22.854			-3.809
67100.000			-22.854			-3.809
67201.000			-22.853			-3.809
67300.000			-22.852			-3.809
67400.000			-22.851			-3.809
67501.000			-22.851			-3.809
67601.000			-22.851			-3.808
67701.000			-22.850			-3.808
67801.000			-22.849			-3.808
67900.000			-22.849			-3.808
68000.000			-22.847			-3.808
68101.000			-22.847			-3.808
68200.000			-22.846			-3.808
68301.000			-22.846			-3.808
68401.000			-22.845			-3.808
68501.000			-22.845			-3.807
68601.000			-22.844			-3.807
68700.000			-22.843			-3.807
68800.000			-22.842			-3.807
