# Acquired on 25/01/2024 11:12:37 
# SPIDER: Creep_4mm_GRPCNT1454A-2
# CREEP MEASUREMENT

# time [ms]		force [N]		stiffness [N/mm]
1.000			-14.461			-3.615
104.000			-15.093			-3.773
205.000			-15.197			-3.799
304.000			-15.075			-3.769
403.000			-14.958			-3.740
505.000			-14.798			-3.699
604.000			-14.735			-3.684
705.000			-14.681			-3.670
804.000			-14.633			-3.658
903.000			-14.589			-3.647
1005.000			-14.549			-3.637
1104.000			-14.513			-3.628
1204.000			-14.452			-3.613
1305.000			-14.423			-3.606
1404.000			-14.397			-3.599
1504.000			-14.371			-3.593
1605.000			-14.348			-3.587
1704.000			-14.326			-3.582
1804.000			-14.305			-3.576
1905.000			-14.266			-3.567
2004.000			-14.248			-3.562
2103.000			-14.231			-3.558
2205.000			-14.213			-3.553
2304.000			-14.196			-3.549
2404.000			-14.183			-3.546
2505.000			-14.168			-3.542
2604.000			-14.154			-3.538
2704.000			-14.126			-3.531
2804.000			-14.112			-3.528
2904.000			-14.101			-3.525
3004.000			-14.090			-3.522
3105.000			-14.076			-3.519
3204.000			-14.064			-3.516
3303.000			-14.054			-3.514
3405.000			-14.034			-3.508
3504.000			-14.023			-3.506
3604.000			-14.013			-3.503
3705.000			-14.004			-3.501
3804.000			-13.995			-3.499
3905.000			-13.986			-3.497
4003.000			-13.977			-3.494
4104.000			-13.960			-3.490
4205.000			-13.950			-3.488
4304.000			-13.942			-3.485
4404.000			-13.934			-3.483
4504.000			-13.927			-3.482
4604.000			-13.919			-3.480
4704.000			-13.910			-3.478
4805.000			-13.897			-3.474
4904.000			-13.889			-3.472
5004.000			-13.882			-3.471
5105.000			-13.875			-3.469
5203.000			-13.869			-3.467
5304.000			-13.862			-3.466
5405.000			-13.856			-3.464
5504.000			-13.851			-3.463
5604.000			-13.837			-3.459
5705.000			-13.830			-3.458
5804.000			-13.825			-3.456
5903.000			-13.819			-3.455
6005.000			-13.813			-3.453
6104.000			-13.808			-3.452
6204.000			-13.801			-3.450
6305.000			-13.791			-3.448
6403.000			-13.785			-3.446
6504.000			-13.779			-3.445
6605.000			-13.775			-3.444
6704.000			-13.769			-3.442
6804.000			-13.765			-3.441
6904.000			-13.760			-3.440
7004.000			-13.750			-3.437
7104.000			-13.745			-3.436
7204.000			-13.740			-3.435
7304.000			-13.736			-3.434
7405.000			-13.731			-3.433
7504.000			-13.726			-3.432
7604.000			-13.722			-3.430
7705.000			-13.713			-3.428
7803.000			-13.709			-3.427
7904.000			-13.704			-3.426
8005.000			-13.699			-3.425
8104.000			-13.695			-3.424
8204.000			-13.691			-3.423
8304.000			-13.687			-3.422
8404.000			-13.684			-3.421
8504.000			-13.675			-3.419
8605.000			-13.672			-3.418
8704.000			-13.668			-3.417
8804.000			-13.663			-3.416
8905.000			-13.659			-3.415
9003.000			-13.655			-3.414
9104.000			-13.652			-3.413
9205.000			-13.644			-3.411
9304.000			-13.641			-3.410
9404.000			-13.638			-3.409
9505.000			-13.634			-3.408
9604.000			-13.630			-3.408
9703.000			-13.627			-3.407
9805.000			-13.623			-3.406
9904.000			-13.616			-3.404
10004.000			-13.612			-3.403
10105.000			-13.609			-3.402
10203.000			-13.605			-3.401
10305.000			-13.603			-3.401
10404.000			-13.600			-3.400
10504.000			-13.596			-3.399
10605.000			-13.590			-3.397
10704.000			-13.587			-3.397
10804.000			-13.584			-3.396
10904.000			-13.580			-3.395
11004.000			-13.577			-3.394
11104.000			-13.576			-3.394
11205.000			-13.572			-3.393
11304.000			-13.569			-3.392
11404.000			-13.563			-3.391
11505.000			-13.560			-3.390
11603.000			-13.557			-3.389
11704.000			-13.555			-3.389
11805.000			-13.553			-3.388
11904.000			-13.549			-3.387
12004.000			-13.545			-3.386
12105.000			-13.540			-3.385
12204.000			-13.537			-3.384
12303.000			-13.535			-3.384
12405.000			-13.532			-3.383
12504.000			-13.530			-3.382
12604.000			-13.527			-3.382
12705.000			-13.524			-3.381
12803.000			-13.518			-3.380
12904.000			-13.516			-3.379
13005.000			-13.514			-3.378
13104.000			-13.511			-3.378
13204.000			-13.509			-3.377
13304.000			-13.506			-3.376
13404.000			-13.504			-3.376
13504.000			-13.499			-3.375
13604.000			-13.496			-3.374
13704.000			-13.494			-3.374
13805.000			-13.492			-3.373
13904.000			-13.489			-3.372
14004.000			-13.486			-3.371
14105.000			-13.482			-3.371
14203.000			-13.481			-3.370
14304.000			-13.476			-3.369
14405.000			-13.474			-3.368
14504.000			-13.472			-3.368
14604.000			-13.470			-3.368
14705.000			-13.468			-3.367
14804.000			-13.465			-3.366
14903.000			-13.462			-3.365
15005.000			-13.458			-3.364
15104.000			-13.456			-3.364
15204.000			-13.454			-3.364
15305.000			-13.452			-3.363
15404.000			-13.449			-3.362
15504.000			-13.447			-3.362
15604.000			-13.446			-3.361
15704.000			-13.442			-3.360
15804.000			-13.439			-3.360
15905.000			-13.437			-3.359
16004.000			-13.435			-3.359
16103.000			-13.433			-3.358
16205.000			-13.431			-3.358
16304.000			-13.430			-3.357
16404.000			-13.426			-3.356
16505.000			-13.424			-3.356
16604.000			-13.421			-3.355
16705.000			-13.420			-3.355
16803.000			-13.418			-3.354
16904.000			-13.415			-3.354
17005.000			-13.413			-3.353
17104.000			-13.412			-3.353
17204.000			-13.408			-3.352
17305.000			-13.406			-3.352
17404.000			-13.404			-3.351
17503.000			-13.402			-3.351
17605.000			-13.401			-3.350
17704.000			-13.398			-3.350
17804.000			-13.396			-3.349
17905.000			-13.393			-3.348
18004.000			-13.391			-3.348
18104.000			-13.390			-3.347
18204.000			-13.388			-3.347
18304.000			-13.387			-3.347
18404.000			-13.384			-3.346
18505.000			-13.382			-3.345
18604.000			-13.379			-3.345
18704.000			-13.377			-3.344
18805.000			-13.375			-3.344
18903.000			-13.373			-3.343
19004.000			-13.372			-3.343
19105.000			-13.369			-3.342
19204.000			-13.368			-3.342
19304.000			-13.365			-3.341
19405.000			-13.363			-3.341
19504.000			-13.362			-3.340
19603.000			-13.360			-3.340
19705.000			-13.358			-3.339
19804.000			-13.357			-3.339
19905.000			-13.354			-3.339
20004.000			-13.353			-3.338
20104.000			-13.350			-3.337
20205.000			-13.349			-3.337
20304.000			-13.347			-3.337
20404.000			-13.345			-3.336
20505.000			-13.343			-3.336
20604.000			-13.341			-3.335
20704.000			-13.339			-3.335
20804.000			-13.337			-3.334
20904.000			-13.335			-3.334
21004.000			-13.333			-3.333
21105.000			-13.332			-3.333
21204.000			-13.331			-3.333
21304.000			-13.329			-3.332
21405.000			-13.327			-3.332
21503.000			-13.325			-3.331
21604.000			-13.324			-3.331
21705.000			-13.321			-3.330
21804.000			-13.320			-3.330
21904.000			-13.318			-3.330
22004.000			-13.318			-3.329
22104.000			-13.316			-3.329
22204.000			-13.314			-3.329
22305.000			-13.312			-3.328
22404.000			-13.310			-3.327
22504.000			-13.308			-3.327
22605.000			-13.307			-3.327
22703.000			-13.306			-3.326
22804.000			-13.304			-3.326
22905.000			-13.302			-3.326
23004.000			-13.301			-3.325
23105.000			-13.299			-3.325
23204.000			-13.297			-3.324
23304.000			-13.295			-3.324
23404.000			-13.295			-3.324
23504.000			-13.294			-3.323
23604.000			-13.292			-3.323
23705.000			-13.289			-3.322
23804.000			-13.287			-3.322
23904.000			-13.285			-3.321
24005.000			-13.285			-3.321
24103.000			-13.284			-3.321
24204.000			-13.283			-3.321
24305.000			-13.282			-3.320
24404.000			-13.277			-3.319
24504.000			-13.276			-3.319
24605.000			-13.275			-3.319
24704.000			-13.273			-3.318
24803.000			-13.272			-3.318
24905.000			-13.272			-3.318
25004.000			-13.270			-3.318
25104.000			-13.269			-3.317
25205.000			-13.267			-3.317
25304.000			-13.266			-3.316
25404.000			-13.264			-3.316
25504.000			-13.263			-3.316
25604.000			-13.261			-3.315
25704.000			-13.260			-3.315
25805.000			-13.259			-3.315
25904.000			-13.256			-3.314
26004.000			-13.255			-3.314
26105.000			-13.253			-3.313
26203.000			-13.252			-3.313
26305.000			-13.251			-3.313
26404.000			-13.251			-3.313
26504.000			-13.250			-3.312
26605.000			-13.247			-3.312
26703.000			-13.246			-3.311
26804.000			-13.244			-3.311
26905.000			-13.242			-3.311
27004.000			-13.242			-3.310
27104.000			-13.241			-3.310
27205.000			-13.240			-3.310
27304.000			-13.238			-3.310
27403.000			-13.237			-3.309
27505.000			-13.234			-3.309
27604.000			-13.234			-3.308
27704.000			-13.233			-3.308
27805.000			-13.232			-3.308
27904.000			-13.230			-3.308
28004.000			-13.229			-3.307
28104.000			-13.227			-3.307
28204.000			-13.226			-3.307
28304.000			-13.225			-3.306
28405.000			-13.224			-3.306
28504.000			-13.222			-3.305
28604.000			-13.220			-3.305
28705.000			-13.219			-3.305
28803.000			-13.219			-3.305
28904.000			-13.217			-3.304
29005.000			-13.215			-3.304
29104.000			-13.214			-3.303
29204.000			-13.213			-3.303
29304.000			-13.212			-3.303
29404.000			-13.211			-3.303
29504.000			-13.209			-3.302
29604.000			-13.208			-3.302
29704.000			-13.206			-3.301
29805.000			-13.205			-3.301
29904.000			-13.204			-3.301
30003.000			-13.203			-3.301
30105.000			-13.202			-3.300
30204.000			-13.201			-3.300
30304.000			-13.198			-3.299
30405.000			-13.197			-3.299
30504.000			-13.196			-3.299
30604.000			-13.195			-3.299
30704.000			-13.194			-3.299
30804.000			-13.193			-3.298
30904.000			-13.192			-3.298
31005.000			-13.190			-3.298
31104.000			-13.190			-3.297
31204.000			-13.188			-3.297
31305.000			-13.187			-3.297
31403.000			-13.187			-3.297
31504.000			-13.185			-3.296
31605.000			-13.184			-3.296
31704.000			-13.182			-3.296
31804.000			-13.181			-3.295
31904.000			-13.180			-3.295
32004.000			-13.180			-3.295
32104.000			-13.179			-3.295
32205.000			-13.178			-3.294
32304.000			-13.177			-3.294
32404.000			-13.175			-3.294
32505.000			-13.174			-3.293
32603.000			-13.172			-3.293
32705.000			-13.171			-3.293
32804.000			-13.170			-3.293
32904.000			-13.169			-3.292
33005.000			-13.170			-3.292
33104.000			-13.169			-3.292
33204.000			-13.167			-3.292
33304.000			-13.166			-3.292
33404.000			-13.164			-3.291
33504.000			-13.162			-3.291
33605.000			-13.162			-3.291
33704.000			-13.162			-3.291
33803.000			-13.161			-3.290
33905.000			-13.159			-3.290
34004.000			-13.158			-3.289
34104.000			-13.156			-3.289
34205.000			-13.156			-3.289
34304.000			-13.155			-3.289
34404.000			-13.154			-3.288
34504.000			-13.153			-3.288
34604.000			-13.150			-3.287
34704.000			-13.148			-3.287
34805.000			-13.147			-3.287
34904.000			-13.146			-3.287
35004.000			-13.145			-3.286
35105.000			-13.144			-3.286
35203.000			-13.143			-3.286
35304.000			-13.142			-3.286
35405.000			-13.140			-3.285
35504.000			-13.138			-3.285
35604.000			-13.139			-3.285
35703.000			-13.139			-3.285
35804.000			-13.137			-3.284
35905.000			-13.136			-3.284
36004.000			-13.135			-3.284
36104.000			-13.134			-3.283
36205.000			-13.132			-3.283
36304.000			-13.131			-3.283
36403.000			-13.130			-3.283
36505.000			-13.129			-3.282
36604.000			-13.129			-3.282
36704.000			-13.130			-3.282
36805.000			-13.127			-3.282
36904.000			-13.126			-3.282
37004.000			-13.125			-3.281
37104.000			-13.124			-3.281
37204.000			-13.124			-3.281
37304.000			-13.123			-3.281
37405.000			-13.123			-3.281
37504.000			-13.120			-3.280
37603.000			-13.120			-3.280
37705.000			-13.119			-3.280
37804.000			-13.119			-3.280
37904.000			-13.118			-3.279
38005.000			-13.117			-3.279
38104.000			-13.116			-3.279
38204.000			-13.114			-3.279
38304.000			-13.114			-3.278
38404.000			-13.113			-3.278
38504.000			-13.112			-3.278
38605.000			-13.111			-3.278
38704.000			-13.110			-3.277
38804.000			-13.110			-3.277
38905.000			-13.109			-3.277
39003.000			-13.108			-3.277
39105.000			-13.106			-3.277
39204.000			-13.105			-3.276
39304.000			-13.104			-3.276
39405.000			-13.104			-3.276
39503.000			-13.104			-3.276
39604.000			-13.103			-3.276
39705.000			-13.102			-3.276
39804.000			-13.100			-3.275
39904.000			-13.099			-3.275
40005.000			-13.099			-3.275
40104.000			-13.098			-3.274
40203.000			-13.097			-3.274
40305.000			-13.096			-3.274
40404.000			-13.095			-3.274
40504.000			-13.095			-3.274
40605.000			-13.093			-3.273
40704.000			-13.093			-3.273
40804.000			-13.091			-3.273
40904.000			-13.090			-3.272
41004.000			-13.090			-3.273
41104.000			-13.090			-3.273
41205.000			-13.088			-3.272
41304.000			-13.088			-3.272
41404.000			-13.086			-3.271
41505.000			-13.085			-3.271
41603.000			-13.085			-3.271
41704.000			-13.084			-3.271
41805.000			-13.084			-3.271
41904.000			-13.082			-3.270
42004.000			-13.081			-3.270
42104.000			-13.080			-3.270
42204.000			-13.081			-3.270
42304.000			-13.080			-3.270
42404.000			-13.079			-3.270
42504.000			-13.078			-3.269
42605.000			-13.075			-3.269
42704.000			-13.074			-3.269
42803.000			-13.074			-3.269
42905.000			-13.073			-3.268
43004.000			-13.073			-3.268
43104.000			-13.073			-3.268
43205.000			-13.072			-3.268
43304.000			-13.071			-3.268
43404.000			-13.070			-3.268
43504.000			-13.069			-3.267
43604.000			-13.069			-3.267
43704.000			-13.068			-3.267
43805.000			-13.067			-3.267
43904.000			-13.067			-3.267
44004.000			-13.066			-3.266
44105.000			-13.063			-3.266
44203.000			-13.062			-3.265
44304.000			-13.061			-3.265
44405.000			-13.061			-3.265
44504.000			-13.061			-3.265
44604.000			-13.061			-3.265
44705.000			-13.061			-3.265
44804.000			-13.057			-3.264
44903.000			-13.056			-3.264
45005.000			-13.055			-3.264
45104.000			-13.055			-3.264
45204.000			-13.055			-3.264
45305.000			-13.055			-3.264
45403.000			-13.054			-3.263
45505.000			-13.052			-3.263
45604.000			-13.052			-3.263
45704.000			-13.051			-3.263
45805.000			-13.051			-3.263
45904.000			-13.050			-3.263
46004.000			-13.049			-3.262
46104.000			-13.049			-3.262
46204.000			-13.049			-3.262
46304.000			-13.046			-3.262
46405.000			-13.046			-3.261
46504.000			-13.046			-3.262
46604.000			-13.045			-3.261
46705.000			-13.043			-3.261
46803.000			-13.042			-3.261
46904.000			-13.043			-3.261
47005.000			-13.041			-3.260
47104.000			-13.041			-3.260
47204.000			-13.042			-3.260
47305.000			-13.040			-3.260
47404.000			-13.039			-3.260
47503.000			-13.038			-3.260
47605.000			-13.038			-3.259
47704.000			-13.037			-3.259
47804.000			-13.036			-3.259
47905.000			-13.035			-3.259
48004.000			-13.034			-3.259
48104.000			-13.033			-3.258
48205.000			-13.033			-3.258
48304.000			-13.031			-3.258
48404.000			-13.030			-3.258
48504.000			-13.030			-3.258
48604.000			-13.030			-3.257
48704.000			-13.028			-3.257
48804.000			-13.028			-3.257
48904.000			-13.028			-3.257
49005.000			-13.028			-3.257
49104.000			-13.027			-3.257
49204.000			-13.025			-3.256
49305.000			-13.024			-3.256
49403.000			-13.024			-3.256
49504.000			-13.022			-3.256
49605.000			-13.022			-3.255
49704.000			-13.021			-3.255
49804.000			-13.021			-3.255
49905.000			-13.020			-3.255
50004.000			-13.019			-3.255
50103.000			-13.018			-3.255
50205.000			-13.018			-3.255
50304.000			-13.018			-3.255
50404.000			-13.016			-3.254
50505.000			-13.016			-3.254
50603.000			-13.015			-3.254
50704.000			-13.015			-3.254
50805.000			-13.014			-3.254
50904.000			-13.014			-3.253
51004.000			-13.013			-3.253
51105.000			-13.013			-3.253
51204.000			-13.012			-3.253
51303.000			-13.011			-3.253
51405.000			-13.010			-3.252
51504.000			-13.009			-3.252
51604.000			-13.008			-3.252
51705.000			-13.008			-3.252
51804.000			-13.008			-3.252
51905.000			-13.007			-3.252
52004.000			-13.006			-3.252
52104.000			-13.005			-3.251
52205.000			-13.005			-3.251
52304.000			-13.004			-3.251
52404.000			-13.004			-3.251
52504.000			-13.002			-3.251
52604.000			-13.001			-3.250
52704.000			-13.001			-3.250
52805.000			-13.000			-3.250
52904.000			-12.999			-3.250
53004.000			-12.998			-3.250
53105.000			-12.998			-3.249
53203.000			-12.998			-3.249
53304.000			-12.996			-3.249
53405.000			-12.997			-3.249
53504.000			-12.994			-3.249
53604.000			-12.994			-3.249
53705.000			-12.994			-3.248
53804.000			-12.994			-3.248
53903.000			-12.994			-3.248
54005.000			-12.992			-3.248
54104.000			-12.992			-3.248
54204.000			-12.992			-3.248
54305.000			-12.990			-3.247
54404.000			-12.990			-3.248
54504.000			-12.990			-3.247
54604.000			-12.989			-3.247
54704.000			-12.988			-3.247
54804.000			-12.986			-3.247
54904.000			-12.987			-3.247
55004.000			-12.986			-3.246
55105.000			-12.985			-3.246
55204.000			-12.985			-3.246
55303.000			-12.984			-3.246
55405.000			-12.983			-3.246
55504.000			-12.982			-3.245
55604.000			-12.981			-3.245
55705.000			-12.981			-3.245
55804.000			-12.981			-3.245
55904.000			-12.979			-3.245
56004.000			-12.978			-3.245
56104.000			-12.978			-3.245
56204.000			-12.978			-3.245
56305.000			-12.978			-3.245
56404.000			-12.977			-3.244
56504.000			-12.976			-3.244
56605.000			-12.975			-3.244
56703.000			-12.975			-3.244
56804.000			-12.974			-3.244
56905.000			-12.973			-3.243
57004.000			-12.973			-3.243
57104.000			-12.972			-3.243
57205.000			-12.971			-3.243
57304.000			-12.972			-3.243
57403.000			-12.972			-3.243
57505.000			-12.971			-3.243
57604.000			-12.969			-3.242
57704.000			-12.968			-3.242
57805.000			-12.968			-3.242
57904.000			-12.968			-3.242
58004.000			-12.967			-3.242
58103.000			-12.966			-3.242
58204.000			-12.965			-3.241
58305.000			-12.965			-3.241
58404.000			-12.964			-3.241
58504.000			-12.963			-3.241
58605.000			-12.963			-3.241
58704.000			-12.962			-3.241
58803.000			-12.961			-3.240
58905.000			-12.960			-3.240
59004.000			-12.960			-3.240
59104.000			-12.960			-3.240
59205.000			-12.959			-3.240
59304.000			-12.958			-3.240
59404.000			-12.958			-3.240
59504.000			-12.957			-3.239
59604.000			-12.957			-3.239
59704.000			-12.956			-3.239
59805.000			-12.955			-3.239
59904.000			-12.954			-3.239
60004.000			-12.954			-3.239
60105.000			-12.954			-3.239
60203.000			-12.953			-3.238
60304.000			-12.954			-3.238
60405.000			-12.953			-3.238
60504.000			-12.952			-3.238
60604.000			-12.951			-3.238
60705.000			-12.951			-3.238
60804.000			-12.949			-3.237
60903.000			-12.950			-3.237
61005.000			-12.950			-3.238
61104.000			-12.949			-3.237
61204.000			-12.948			-3.237
61305.000			-12.947			-3.237
61404.000			-12.947			-3.237
61505.000			-12.945			-3.236
61603.000			-12.944			-3.236
61704.000			-12.943			-3.236
61805.000			-12.944			-3.236
61904.000			-12.945			-3.236
62004.000			-12.944			-3.236
62105.000			-12.943			-3.236
62204.000			-12.942			-3.236
62303.000			-12.941			-3.235
62405.000			-12.941			-3.235
62504.000			-12.940			-3.235
62604.000			-12.939			-3.235
62705.000			-12.939			-3.235
62803.000			-12.939			-3.235
62904.000			-12.939			-3.235
63005.000			-12.936			-3.234
63104.000			-12.936			-3.234
63204.000			-12.935			-3.234
63305.000			-12.934			-3.234
63404.000			-12.935			-3.234
63503.000			-12.935			-3.234
63605.000			-12.934			-3.234
63704.000			-12.933			-3.233
63804.000			-12.932			-3.233
63905.000			-12.933			-3.233
64004.000			-12.931			-3.233
64104.000			-12.931			-3.233
64204.000			-12.930			-3.233
64304.000			-12.930			-3.233
64404.000			-12.929			-3.232
64504.000			-12.928			-3.232
64604.000			-12.927			-3.232
64705.000			-12.927			-3.232
64804.000			-12.927			-3.232
64903.000			-12.927			-3.232
65005.000			-12.926			-3.232
65104.000			-12.926			-3.232
65204.000			-12.925			-3.231
65305.000			-12.924			-3.231
65404.000			-12.924			-3.231
65504.000			-12.923			-3.231
65604.000			-12.923			-3.231
65704.000			-12.922			-3.231
65804.000			-12.921			-3.230
65905.000			-12.921			-3.230
66004.000			-12.921			-3.230
66103.000			-12.921			-3.230
66205.000			-12.921			-3.230
66304.000			-12.920			-3.230
66404.000			-12.918			-3.230
66505.000			-12.918			-3.230
66604.000			-12.918			-3.230
66704.000			-12.917			-3.229
66804.000			-12.917			-3.229
66904.000			-12.916			-3.229
67003.000			-12.915			-3.229
67105.000			-12.916			-3.229
67204.000			-12.915			-3.229
67304.000			-12.914			-3.228
67405.000			-12.914			-3.229
67504.000			-12.914			-3.228
67604.000			-12.913			-3.228
67703.000			-12.912			-3.228
67804.000			-12.912			-3.228
67905.000			-12.911			-3.228
68004.000			-12.911			-3.228
68104.000			-12.909			-3.227
68205.000			-12.909			-3.227
68304.000			-12.908			-3.227
68403.000			-12.908			-3.227
68505.000			-12.908			-3.227
68604.000			-12.906			-3.227
68704.000			-12.907			-3.227
68805.000			-12.905			-3.226
