# Acquired on 10/01/2024 12:07:23 
# SPIDER: Creep_-3mm_07714532B-2
# CREEP MEASUREMENT

# time [ms]		force [N]		stiffness [N/mm]
1.000			6.607			-2.202
101.000			8.309			-2.770
200.000			8.486			-2.829
300.000			8.467			-2.822
401.000			8.427			-2.809
500.000			8.397			-2.799
601.000			8.373			-2.791
702.000			8.353			-2.784
800.000			8.319			-2.773
900.000			8.304			-2.768
1001.000			8.291			-2.764
1100.000			8.280			-2.760
1200.000			8.270			-2.757
1302.000			8.260			-2.753
1401.000			8.250			-2.750
1500.000			8.242			-2.747
1601.000			8.226			-2.742
1700.000			8.219			-2.740
1800.000			8.211			-2.737
1901.000			8.204			-2.735
2000.000			8.199			-2.733
2101.000			8.194			-2.731
2202.000			8.188			-2.729
2300.000			8.175			-2.725
2401.000			8.171			-2.724
2500.000			8.166			-2.722
2600.000			8.161			-2.720
2701.000			8.157			-2.719
2800.000			8.153			-2.718
2901.000			8.148			-2.716
3002.000			8.141			-2.714
3100.000			8.137			-2.712
3200.000			8.132			-2.711
3301.000			8.128			-2.709
3400.000			8.126			-2.709
3500.000			8.122			-2.707
3602.000			8.118			-2.706
3701.000			8.112			-2.704
3800.000			8.109			-2.703
3901.000			8.105			-2.702
4000.000			8.104			-2.701
4100.000			8.101			-2.700
4201.000			8.096			-2.699
4301.000			8.094			-2.698
4401.000			8.092			-2.697
4502.000			8.087			-2.696
4600.000			8.085			-2.695
4700.000			8.083			-2.694
4801.000			8.080			-2.693
4900.000			8.078			-2.693
5000.000			8.076			-2.692
5102.000			8.074			-2.691
5201.000			8.068			-2.689
5300.000			8.066			-2.689
5401.000			8.064			-2.688
5500.000			8.061			-2.687
5601.000			8.059			-2.686
5700.000			8.057			-2.686
5800.000			8.055			-2.685
5902.000			8.051			-2.684
6001.000			8.049			-2.683
6100.000			8.047			-2.682
6201.000			8.046			-2.682
6300.000			8.044			-2.681
6400.000			8.042			-2.681
6501.000			8.040			-2.680
6600.000			8.038			-2.679
6701.000			8.034			-2.678
6802.000			8.033			-2.678
6900.000			8.032			-2.677
7000.000			8.031			-2.677
7101.000			8.029			-2.676
7200.000			8.028			-2.676
7300.000			8.025			-2.675
7402.000			8.024			-2.675
7501.000			8.021			-2.674
7600.000			8.020			-2.673
7701.000			8.018			-2.673
7800.000			8.017			-2.672
7900.000			8.016			-2.672
8001.000			8.015			-2.672
8100.000			8.010			-2.670
8201.000			8.009			-2.670
8302.000			8.008			-2.669
8400.000			8.007			-2.669
8500.000			8.006			-2.669
8601.000			8.004			-2.668
8700.000			8.003			-2.668
8801.000			8.001			-2.667
8901.000			8.000			-2.667
9001.000			7.998			-2.666
9101.000			7.996			-2.665
9200.000			7.995			-2.665
9300.000			7.994			-2.665
9401.000			7.993			-2.664
9500.000			7.992			-2.664
9600.000			7.989			-2.663
9702.000			7.988			-2.663
9801.000			7.987			-2.662
9901.000			7.986			-2.662
10001.000			7.985			-2.662
10100.000			7.984			-2.661
10200.000			7.982			-2.661
10301.000			7.981			-2.660
10400.000			7.980			-2.660
10500.000			7.979			-2.660
10602.000			7.978			-2.659
10701.000			7.977			-2.659
10800.000			7.975			-2.658
10901.000			7.974			-2.658
11000.000			7.971			-2.657
11100.000			7.970			-2.657
11201.000			7.970			-2.657
11300.000			7.968			-2.656
11401.000			7.968			-2.656
11502.000			7.967			-2.656
11600.000			7.966			-2.655
11700.000			7.964			-2.655
11801.000			7.964			-2.655
11900.000			7.963			-2.654
12001.000			7.962			-2.654
12100.000			7.961			-2.654
12201.000			7.960			-2.653
12302.000			7.958			-2.653
12400.000			7.957			-2.652
12500.000			7.956			-2.652
12601.000			7.955			-2.652
12700.000			7.954			-2.651
12800.000			7.954			-2.651
12901.000			7.953			-2.651
13001.000			7.952			-2.651
13101.000			7.951			-2.650
13201.000			7.948			-2.649
13300.000			7.948			-2.649
13400.000			7.947			-2.649
13501.000			7.946			-2.649
13600.000			7.945			-2.648
13700.000			7.945			-2.648
13802.000			7.943			-2.648
13901.000			7.943			-2.648
14001.000			7.942			-2.647
14101.000			7.941			-2.647
14200.000			7.940			-2.647
14300.000			7.939			-2.646
14401.000			7.938			-2.646
14500.000			7.937			-2.646
14600.000			7.937			-2.646
14702.000			7.936			-2.645
14801.000			7.935			-2.645
14900.000			7.934			-2.645
15001.000			7.934			-2.645
15100.000			7.933			-2.644
15201.000			7.932			-2.644
15300.000			7.931			-2.644
15400.000			7.929			-2.643
15502.000			7.929			-2.643
15601.000			7.928			-2.643
15700.000			7.928			-2.643
15801.000			7.926			-2.642
15900.000			7.925			-2.642
16000.000			7.925			-2.642
16101.000			7.924			-2.641
16200.000			7.924			-2.641
16301.000			7.923			-2.641
16402.000			7.922			-2.641
16500.000			7.921			-2.640
16600.000			7.920			-2.640
16701.000			7.920			-2.640
16800.000			7.920			-2.640
16900.000			7.918			-2.639
17001.000			7.917			-2.639
17101.000			7.917			-2.639
17201.000			7.916			-2.639
17301.000			7.916			-2.639
17400.000			7.915			-2.638
17500.000			7.913			-2.638
17601.000			7.912			-2.637
17700.000			7.912			-2.637
17800.000			7.911			-2.637
17901.000			7.912			-2.637
18001.000			7.911			-2.637
18101.000			7.910			-2.637
18201.000			7.909			-2.636
18300.000			7.908			-2.636
18401.000			7.908			-2.636
18500.000			7.907			-2.636
18600.000			7.905			-2.635
18701.000			7.905			-2.635
18801.000			7.905			-2.635
18901.000			7.905			-2.635
19001.000			7.904			-2.635
19100.000			7.904			-2.635
19200.000			7.903			-2.634
19301.000			7.902			-2.634
19400.000			7.901			-2.634
19500.000			7.900			-2.633
19602.000			7.900			-2.633
19701.000			7.898			-2.633
19800.000			7.898			-2.633
19901.000			7.898			-2.633
20000.000			7.898			-2.633
20100.000			7.897			-2.632
20201.000			7.896			-2.632
20300.000			7.897			-2.632
20401.000			7.896			-2.632
20502.000			7.895			-2.632
20600.000			7.894			-2.631
20700.000			7.893			-2.631
20801.000			7.892			-2.631
20900.000			7.892			-2.631
21000.000			7.892			-2.631
21101.000			7.891			-2.630
21201.000			7.890			-2.630
21301.000			7.890			-2.630
21402.000			7.890			-2.630
21500.000			7.889			-2.630
21601.000			7.888			-2.629
21700.000			7.887			-2.629
21800.000			7.887			-2.629
21901.000			7.886			-2.629
22000.000			7.887			-2.629
22101.000			7.886			-2.629
22202.000			7.885			-2.628
22300.000			7.885			-2.628
22400.000			7.883			-2.628
22501.000			7.882			-2.627
22600.000			7.883			-2.628
22700.000			7.882			-2.627
22801.000			7.882			-2.627
22901.000			7.881			-2.627
23001.000			7.881			-2.627
23101.000			7.881			-2.627
23200.000			7.880			-2.627
23300.000			7.879			-2.626
23401.000			7.878			-2.626
23500.000			7.878			-2.626
23600.000			7.878			-2.626
23702.000			7.878			-2.626
23801.000			7.876			-2.625
23900.000			7.875			-2.625
24001.000			7.875			-2.625
24100.000			7.873			-2.624
24200.000			7.873			-2.624
24301.000			7.875			-2.625
24400.000			7.874			-2.625
24501.000			7.872			-2.624
24602.000			7.872			-2.624
24701.000			7.872			-2.624
24801.000			7.871			-2.624
24900.000			7.869			-2.623
25000.000			7.868			-2.623
25101.000			7.869			-2.623
25200.000			7.869			-2.623
25300.000			7.869			-2.623
25402.000			7.867			-2.622
25501.000			7.868			-2.623
25600.000			7.868			-2.623
25701.000			7.867			-2.622
25800.000			7.866			-2.622
25900.000			7.866			-2.622
26001.000			7.866			-2.622
26100.000			7.866			-2.622
26201.000			7.865			-2.622
26302.000			7.864			-2.621
26400.000			7.863			-2.621
26500.000			7.863			-2.621
26601.000			7.863			-2.621
26700.000			7.862			-2.621
26800.000			7.861			-2.620
26901.000			7.862			-2.621
27001.000			7.860			-2.620
27101.000			7.860			-2.620
27201.000			7.859			-2.620
27300.000			7.860			-2.620
27400.000			7.859			-2.620
27501.000			7.859			-2.620
27600.000			7.859			-2.620
27700.000			7.858			-2.619
27801.000			7.857			-2.619
27901.000			7.856			-2.619
28002.000			7.856			-2.619
28100.000			7.855			-2.618
28200.000			7.855			-2.618
28301.000			7.855			-2.618
28400.000			7.855			-2.618
28500.000			7.854			-2.618
28601.000			7.853			-2.618
28701.000			7.854			-2.618
28801.000			7.854			-2.618
28901.000			7.853			-2.618
29000.000			7.853			-2.618
29100.000			7.852			-2.617
29201.000			7.852			-2.617
29300.000			7.851			-2.617
29400.000			7.851			-2.617
29502.000			7.850			-2.617
29601.000			7.850			-2.617
29700.000			7.849			-2.616
29801.000			7.848			-2.616
29900.000			7.847			-2.616
30000.000			7.847			-2.616
30101.000			7.847			-2.616
30200.000			7.847			-2.616
30300.000			7.847			-2.616
30402.000			7.847			-2.616
30501.000			7.845			-2.615
30600.000			7.845			-2.615
30701.000			7.844			-2.615
30800.000			7.843			-2.614
30900.000			7.844			-2.615
31001.000			7.844			-2.615
31101.000			7.844			-2.615
31202.000			7.844			-2.615
31301.000			7.843			-2.614
31400.000			7.842			-2.614
31501.000			7.841			-2.614
31600.000			7.841			-2.614
31700.000			7.841			-2.614
31801.000			7.841			-2.614
31900.000			7.841			-2.614
32001.000			7.841			-2.614
32102.000			7.839			-2.613
32200.000			7.840			-2.613
32300.000			7.840			-2.613
32401.000			7.840			-2.613
32500.000			7.838			-2.613
32600.000			7.837			-2.612
32701.000			7.837			-2.612
32801.000			7.837			-2.612
32901.000			7.838			-2.613
33001.000			7.838			-2.613
33100.000			7.837			-2.612
33200.000			7.837			-2.612
33301.000			7.837			-2.612
33400.000			7.836			-2.612
33500.000			7.835			-2.612
33602.000			7.835			-2.612
33701.000			7.834			-2.611
33800.000			7.834			-2.611
33901.000			7.833			-2.611
34000.000			7.833			-2.611
34100.000			7.833			-2.611
34201.000			7.833			-2.611
34300.000			7.833			-2.611
34402.000			7.833			-2.611
34501.000			7.832			-2.611
34600.000			7.831			-2.610
34701.000			7.830			-2.610
34800.000			7.830			-2.610
34900.000			7.830			-2.610
35001.000			7.829			-2.610
35100.000			7.830			-2.610
35201.000			7.829			-2.610
35302.000			7.829			-2.610
35400.000			7.828			-2.609
35500.000			7.828			-2.609
35601.000			7.828			-2.609
35700.000			7.827			-2.609
35800.000			7.827			-2.609
35901.000			7.827			-2.609
36001.000			7.825			-2.608
36101.000			7.826			-2.609
36201.000			7.827			-2.609
36300.000			7.826			-2.609
36400.000			7.824			-2.608
36501.000			7.824			-2.608
36600.000			7.824			-2.608
36700.000			7.824			-2.608
36802.000			7.824			-2.608
36901.000			7.824			-2.608
37000.000			7.824			-2.608
37101.000			7.822			-2.607
37200.000			7.822			-2.607
37300.000			7.822			-2.607
37401.000			7.822			-2.607
37500.000			7.821			-2.607
37602.000			7.821			-2.607
37701.000			7.821			-2.607
37800.000			7.821			-2.607
37901.000			7.821			-2.607
38000.000			7.820			-2.607
38100.000			7.819			-2.606
38201.000			7.819			-2.606
38300.000			7.819			-2.606
38401.000			7.819			-2.606
38502.000			7.819			-2.606
38601.000			7.820			-2.607
38700.000			7.819			-2.606
38801.000			7.818			-2.606
38900.000			7.816			-2.605
39000.000			7.816			-2.605
39101.000			7.816			-2.605
39201.000			7.817			-2.606
39301.000			7.816			-2.605
39402.000			7.816			-2.605
39500.000			7.816			-2.605
39600.000			7.816			-2.605
39701.000			7.816			-2.605
39800.000			7.815			-2.605
39900.000			7.814			-2.605
40001.000			7.814			-2.605
40101.000			7.815			-2.605
40201.000			7.814			-2.605
40301.000			7.813			-2.604
40400.000			7.813			-2.604
40500.000			7.812			-2.604
40601.000			7.812			-2.604
40700.000			7.813			-2.604
40801.000			7.812			-2.604
40901.000			7.811			-2.604
41001.000			7.812			-2.604
41101.000			7.812			-2.604
41200.000			7.811			-2.604
41300.000			7.811			-2.604
41401.000			7.810			-2.603
41500.000			7.810			-2.603
41601.000			7.810			-2.603
41702.000			7.809			-2.603
41801.000			7.809			-2.603
41900.000			7.807			-2.602
42001.000			7.808			-2.603
42100.000			7.808			-2.603
42200.000			7.809			-2.603
42301.000			7.807			-2.602
42401.000			7.806			-2.602
42501.000			7.807			-2.602
42602.000			7.807			-2.602
42700.000			7.806			-2.602
42800.000			7.806			-2.602
42901.000			7.807			-2.602
43000.000			7.805			-2.602
43100.000			7.805			-2.602
43201.000			7.805			-2.602
43301.000			7.805			-2.602
43401.000			7.804			-2.601
43501.000			7.804			-2.601
43600.000			7.804			-2.601
43700.000			7.803			-2.601
43801.000			7.802			-2.601
43900.000			7.803			-2.601
44001.000			7.802			-2.601
44101.000			7.802			-2.601
44201.000			7.802			-2.601
44301.000			7.802			-2.601
44400.000			7.801			-2.600
44500.000			7.801			-2.600
44601.000			7.801			-2.600
44700.000			7.801			-2.600
44800.000			7.800			-2.600
44902.000			7.800			-2.600
45001.000			7.801			-2.600
45100.000			7.799			-2.600
45201.000			7.800			-2.600
45300.000			7.799			-2.600
45400.000			7.799			-2.600
45501.000			7.797			-2.599
45600.000			7.797			-2.599
45701.000			7.797			-2.599
45802.000			7.797			-2.599
45901.000			7.797			-2.599
46000.000			7.797			-2.599
46101.000			7.796			-2.599
46200.000			7.796			-2.599
46300.000			7.796			-2.599
46401.000			7.796			-2.599
46500.000			7.796			-2.599
46601.000			7.796			-2.599
46702.000			7.795			-2.598
46800.000			7.794			-2.598
46900.000			7.794			-2.598
47001.000			7.794			-2.598
47100.000			7.794			-2.598
47201.000			7.794			-2.598
47300.000			7.794			-2.598
47401.000			7.793			-2.598
47502.000			7.792			-2.597
47600.000			7.792			-2.597
47700.000			7.792			-2.597
47801.000			7.792			-2.597
47900.000			7.792			-2.597
48000.000			7.793			-2.598
48101.000			7.792			-2.597
48201.000			7.791			-2.597
48301.000			7.791			-2.597
48402.000			7.790			-2.597
48500.000			7.790			-2.597
48600.000			7.790			-2.597
48701.000			7.790			-2.597
48800.000			7.790			-2.597
48900.000			7.790			-2.597
49001.000			7.789			-2.596
49101.000			7.788			-2.596
49201.000			7.789			-2.596
49301.000			7.789			-2.596
49400.000			7.787			-2.596
49500.000			7.788			-2.596
49601.000			7.788			-2.596
49700.000			7.786			-2.595
49800.000			7.786			-2.595
49901.000			7.787			-2.596
50001.000			7.788			-2.596
50101.000			7.788			-2.596
50201.000			7.787			-2.596
50300.000			7.785			-2.595
50401.000			7.786			-2.595
50500.000			7.785			-2.595
50600.000			7.784			-2.595
50701.000			7.785			-2.595
50801.000			7.785			-2.595
50901.000			7.785			-2.595
51001.000			7.784			-2.595
51100.000			7.784			-2.595
51200.000			7.783			-2.594
51301.000			7.782			-2.594
51400.000			7.783			-2.594
51500.000			7.784			-2.595
51602.000			7.783			-2.594
51701.000			7.782			-2.594
51800.000			7.783			-2.594
51901.000			7.783			-2.594
52000.000			7.783			-2.594
52100.000			7.782			-2.594
52201.000			7.781			-2.594
52300.000			7.782			-2.594
52401.000			7.782			-2.594
52502.000			7.782			-2.594
52600.000			7.781			-2.594
52700.000			7.781			-2.594
52801.000			7.780			-2.593
52900.000			7.780			-2.593
53000.000			7.779			-2.593
53101.000			7.780			-2.593
53201.000			7.779			-2.593
53301.000			7.778			-2.593
53401.000			7.778			-2.593
53500.000			7.778			-2.593
53601.000			7.779			-2.593
53700.000			7.778			-2.593
53800.000			7.778			-2.593
53901.000			7.777			-2.592
54000.000			7.778			-2.593
54101.000			7.777			-2.592
54202.000			7.775			-2.592
54300.000			7.776			-2.592
54400.000			7.777			-2.592
54501.000			7.777			-2.592
54600.000			7.776			-2.592
54700.000			7.776			-2.592
54801.000			7.776			-2.592
54901.000			7.776			-2.592
55001.000			7.775			-2.592
55101.000			7.775			-2.592
55200.000			7.775			-2.592
55300.000			7.775			-2.592
55401.000			7.774			-2.591
55500.000			7.773			-2.591
55600.000			7.774			-2.591
55702.000			7.773			-2.591
55801.000			7.773			-2.591
55900.000			7.774			-2.591
56001.000			7.773			-2.591
56100.000			7.773			-2.591
56200.000			7.773			-2.591
56301.000			7.772			-2.591
56400.000			7.772			-2.591
56500.000			7.772			-2.591
56602.000			7.772			-2.591
56701.000			7.772			-2.591
56801.000			7.772			-2.591
56900.000			7.771			-2.590
57000.000			7.772			-2.591
57101.000			7.772			-2.591
57200.000			7.772			-2.591
57300.000			7.770			-2.590
57402.000			7.770			-2.590
57501.000			7.770			-2.590
57600.000			7.771			-2.590
57701.000			7.769			-2.590
57800.000			7.769			-2.590
57900.000			7.770			-2.590
58001.000			7.769			-2.590
58100.000			7.769			-2.590
58200.000			7.768			-2.589
58302.000			7.769			-2.590
58401.000			7.768			-2.589
58500.000			7.769			-2.590
58601.000			7.767			-2.589
58700.000			7.767			-2.589
58800.000			7.768			-2.589
58901.000			7.768			-2.589
59000.000			7.767			-2.589
59101.000			7.766			-2.589
59202.000			7.767			-2.589
59300.000			7.766			-2.589
59400.000			7.766			-2.589
59501.000			7.766			-2.589
59600.000			7.766			-2.589
59700.000			7.766			-2.589
59801.000			7.766			-2.589
59900.000			7.766			-2.589
60002.000			7.765			-2.588
60101.000			7.766			-2.589
60200.000			7.766			-2.589
60301.000			7.765			-2.588
60400.000			7.764			-2.588
60500.000			7.764			-2.588
60601.000			7.764			-2.588
60700.000			7.763			-2.588
60801.000			7.764			-2.588
60902.000			7.764			-2.588
61000.000			7.764			-2.588
61100.000			7.764			-2.588
61201.000			7.764			-2.588
61300.000			7.763			-2.588
61400.000			7.763			-2.588
61501.000			7.763			-2.588
61601.000			7.762			-2.587
61701.000			7.762			-2.587
61801.000			7.762			-2.587
61900.000			7.762			-2.587
62000.000			7.762			-2.587
62101.000			7.761			-2.587
62200.000			7.761			-2.587
62300.000			7.761			-2.587
62402.000			7.761			-2.587
62501.000			7.761			-2.587
62600.000			7.761			-2.587
62701.000			7.761			-2.587
62800.000			7.760			-2.587
62900.000			7.760			-2.587
63001.000			7.759			-2.586
63100.000			7.759			-2.586
63202.000			7.758			-2.586
63301.000			7.759			-2.586
63400.000			7.758			-2.586
63501.000			7.758			-2.586
63600.000			7.759			-2.586
63700.000			7.759			-2.586
63801.000			7.758			-2.586
63900.000			7.757			-2.586
64000.000			7.758			-2.586
64102.000			7.757			-2.586
64201.000			7.757			-2.586
64300.000			7.757			-2.586
64401.000			7.756			-2.585
64500.000			7.757			-2.586
64600.000			7.756			-2.585
64701.000			7.756			-2.585
64800.000			7.755			-2.585
64901.000			7.756			-2.585
65002.000			7.756			-2.585
65100.000			7.756			-2.585
65200.000			7.755			-2.585
65301.000			7.755			-2.585
65400.000			7.754			-2.585
65500.000			7.755			-2.585
65601.000			7.754			-2.585
65701.000			7.753			-2.584
65801.000			7.755			-2.585
65901.000			7.755			-2.585
66000.000			7.755			-2.585
66100.000			7.753			-2.584
66201.000			7.754			-2.585
66300.000			7.753			-2.584
66401.000			7.752			-2.584
66501.000			7.752			-2.584
66601.000			7.753			-2.584
66702.000			7.752			-2.584
66800.000			7.751			-2.584
66900.000			7.752			-2.584
67001.000			7.752			-2.584
67100.000			7.751			-2.584
67200.000			7.752			-2.584
67301.000			7.751			-2.584
67401.000			7.751			-2.584
67501.000			7.752			-2.584
67601.000			7.750			-2.583
67700.000			7.750			-2.583
67800.000			7.750			-2.583
67901.000			7.749			-2.583
68000.000			7.749			-2.583
68100.000			7.748			-2.583
68202.000			7.750			-2.583
68301.000			7.749			-2.583
68400.000			7.750			-2.583
68501.000			7.749			-2.583
68600.000			7.749			-2.583
68700.000			7.747			-2.582
68801.000			7.747			-2.582
68900.000			7.748			-2.583
69000.000			7.748			-2.583
69102.000			7.748			-2.583
69201.000			7.748			-2.583
69300.000			7.748			-2.583
69401.000			7.748			-2.583
69500.000			7.747			-2.582
69601.000			7.746			-2.582
69700.000			7.746			-2.582
69800.000			7.747			-2.582
69902.000			7.747			-2.582
70001.000			7.746			-2.582
70101.000			7.746			-2.582
70201.000			7.746			-2.582
70300.000			7.745			-2.582
70400.000			7.746			-2.582
70501.000			7.745			-2.582
70600.000			7.745			-2.582
70700.000			7.746			-2.582
70802.000			7.746			-2.582
70901.000			7.745			-2.582
71000.000			7.744			-2.581
71101.000			7.744			-2.581
71200.000			7.744			-2.581
71300.000			7.743			-2.581
71401.000			7.744			-2.581
71500.000			7.744			-2.581
71601.000			7.745			-2.582
71702.000			7.744			-2.581
71800.000			7.743			-2.581
71900.000			7.743			-2.581
72001.000			7.743			-2.581
72100.000			7.743			-2.581
72200.000			7.743			-2.581
72301.000			7.743			-2.581
72401.000			7.742			-2.581
72501.000			7.743			-2.581
72601.000			7.743			-2.581
72700.000			7.741			-2.580
72801.000			7.741			-2.580
72900.000			7.742			-2.581
73000.000			7.740			-2.580
73101.000			7.741			-2.580
73201.000			7.742			-2.581
73301.000			7.741			-2.580
73401.000			7.741			-2.580
73500.000			7.740			-2.580
73600.000			7.740			-2.580
73701.000			7.740			-2.580
73800.000			7.740			-2.580
73900.000			7.740			-2.580
