# Acquired on 30/01/2024 12:24:25 
# SPIDER: Creep_-11mm_HM077x145x38AA-1
# CREEP MEASUREMENT

# time [ms]		force [N]		stiffness [N/mm]
1.000			64.895			-5.900
105.000			66.142			-6.013
204.000			66.412			-6.037
304.000			66.090			-6.008
404.000			65.653			-5.968
504.000			65.515			-5.956
604.000			65.394			-5.945
705.000			65.285			-5.935
804.000			65.191			-5.926
903.000			65.105			-5.919
1005.000			65.024			-5.911
1104.000			64.883			-5.898
1204.000			64.819			-5.893
1305.000			64.760			-5.887
1404.000			64.703			-5.882
1504.000			64.648			-5.877
1604.000			64.597			-5.872
1704.000			64.549			-5.868
1804.000			64.457			-5.860
1905.000			64.415			-5.856
2004.000			64.374			-5.852
2104.000			64.336			-5.849
2205.000			64.298			-5.845
2303.000			64.260			-5.842
2404.000			64.225			-5.839
2505.000			64.191			-5.836
2604.000			64.126			-5.830
2705.000			64.094			-5.827
2803.000			64.064			-5.824
2904.000			64.035			-5.821
3005.000			64.006			-5.819
3104.000			63.976			-5.816
3204.000			63.949			-5.814
3305.000			63.895			-5.809
3404.000			63.870			-5.806
3503.000			63.844			-5.804
3605.000			63.820			-5.802
3704.000			63.797			-5.800
3804.000			63.773			-5.798
3905.000			63.750			-5.795
4004.000			63.706			-5.791
4104.000			63.684			-5.789
4204.000			63.662			-5.787
4304.000			63.643			-5.786
4404.000			63.624			-5.784
4505.000			63.604			-5.782
4604.000			63.583			-5.780
4703.000			63.545			-5.777
4805.000			63.527			-5.775
4904.000			63.509			-5.774
5004.000			63.492			-5.772
5105.000			63.474			-5.770
5204.000			63.456			-5.769
5304.000			63.438			-5.767
5404.000			63.422			-5.766
5504.000			63.390			-5.763
5604.000			63.375			-5.761
5704.000			63.358			-5.760
5804.000			63.342			-5.758
5905.000			63.328			-5.757
6004.000			63.313			-5.756
6103.000			63.296			-5.754
6205.000			63.268			-5.752
6304.000			63.253			-5.750
6404.000			63.237			-5.749
6505.000			63.224			-5.748
6603.000			63.211			-5.746
6704.000			63.197			-5.745
6805.000			63.183			-5.744
6904.000			63.159			-5.742
7004.000			63.146			-5.741
7105.000			63.133			-5.739
7204.000			63.118			-5.738
7303.000			63.105			-5.737
7405.000			63.094			-5.736
7504.000			63.082			-5.735
7604.000			63.059			-5.733
7705.000			63.047			-5.732
7803.000			63.034			-5.730
7904.000			63.022			-5.729
8005.000			63.010			-5.728
8104.000			62.998			-5.727
8204.000			62.988			-5.726
8305.000			62.976			-5.725
8404.000			62.954			-5.723
8503.000			62.944			-5.722
8605.000			62.934			-5.721
8704.000			62.923			-5.720
8804.000			62.911			-5.719
8905.000			62.900			-5.718
9004.000			62.889			-5.717
9105.000			62.869			-5.715
9203.000			62.859			-5.714
9304.000			62.850			-5.714
9405.000			62.839			-5.713
9504.000			62.828			-5.712
9604.000			62.820			-5.711
9705.000			62.811			-5.710
9804.000			62.790			-5.708
9903.000			62.780			-5.707
10005.000			62.770			-5.706
10104.000			62.761			-5.706
10204.000			62.753			-5.705
10305.000			62.745			-5.704
10404.000			62.735			-5.703
10504.000			62.726			-5.702
10604.000			62.708			-5.701
10704.000			62.699			-5.700
10804.000			62.690			-5.699
10905.000			62.681			-5.698
11004.000			62.672			-5.697
11103.000			62.663			-5.697
11205.000			62.656			-5.696
11304.000			62.638			-5.694
11404.000			62.630			-5.694
11505.000			62.623			-5.693
11604.000			62.614			-5.692
11704.000			62.606			-5.691
11804.000			62.597			-5.691
11904.000			62.589			-5.690
12004.000			62.574			-5.689
12104.000			62.566			-5.688
12204.000			62.560			-5.687
12305.000			62.552			-5.687
12404.000			62.545			-5.686
12503.000			62.537			-5.685
12605.000			62.528			-5.684
12704.000			62.513			-5.683
12804.000			62.506			-5.682
12905.000			62.499			-5.682
13004.000			62.491			-5.681
13104.000			62.483			-5.680
13204.000			62.476			-5.680
13304.000			62.469			-5.679
13404.000			62.463			-5.678
13505.000			62.448			-5.677
13604.000			62.441			-5.676
13704.000			62.434			-5.676
13805.000			62.428			-5.675
13903.000			62.420			-5.675
14004.000			62.413			-5.674
14105.000			62.407			-5.673
14204.000			62.393			-5.672
14304.000			62.386			-5.671
14404.000			62.379			-5.671
14504.000			62.373			-5.670
14603.000			62.366			-5.670
14705.000			62.360			-5.669
14804.000			62.353			-5.668
14904.000			62.341			-5.667
15005.000			62.334			-5.667
15103.000			62.328			-5.666
15204.000			62.321			-5.666
15305.000			62.313			-5.665
15404.000			62.307			-5.664
15505.000			62.302			-5.664
15604.000			62.290			-5.663
15704.000			62.284			-5.662
15804.000			62.277			-5.662
15904.000			62.271			-5.661
16004.000			62.265			-5.660
16105.000			62.260			-5.660
16204.000			62.254			-5.659
16304.000			62.248			-5.659
16405.000			62.236			-5.658
16503.000			62.229			-5.657
16604.000			62.224			-5.657
16705.000			62.219			-5.656
16804.000			62.213			-5.656
16904.000			62.208			-5.655
17005.000			62.202			-5.655
17104.000			62.189			-5.654
17203.000			62.183			-5.653
17305.000			62.179			-5.653
17404.000			62.173			-5.652
17504.000			62.167			-5.652
17605.000			62.162			-5.651
17704.000			62.156			-5.651
17804.000			62.145			-5.650
17904.000			62.140			-5.649
18004.000			62.134			-5.649
18104.000			62.129			-5.648
18205.000			62.124			-5.648
18304.000			62.117			-5.647
18404.000			62.113			-5.647
18505.000			62.102			-5.646
18603.000			62.096			-5.645
18705.000			62.092			-5.645
18804.000			62.087			-5.644
18904.000			62.082			-5.644
19005.000			62.076			-5.643
19104.000			62.072			-5.643
19204.000			62.066			-5.642
19304.000			62.055			-5.641
19404.000			62.052			-5.641
19504.000			62.047			-5.641
19605.000			62.042			-5.640
19704.000			62.035			-5.640
19803.000			62.031			-5.639
19905.000			62.026			-5.639
20004.000			62.016			-5.638
20104.000			62.012			-5.637
20205.000			62.007			-5.637
20304.000			62.001			-5.636
20404.000			61.997			-5.636
20504.000			61.991			-5.636
20604.000			61.986			-5.635
20704.000			61.976			-5.634
20805.000			61.973			-5.634
20904.000			61.968			-5.633
21004.000			61.964			-5.633
21105.000			61.959			-5.633
21203.000			61.954			-5.632
21304.000			61.949			-5.632
21405.000			61.940			-5.631
21504.000			61.934			-5.630
21604.000			61.930			-5.630
21704.000			61.927			-5.630
21804.000			61.923			-5.629
21904.000			61.918			-5.629
22004.000			61.913			-5.628
22104.000			61.909			-5.628
22205.000			61.900			-5.627
22304.000			61.896			-5.627
22404.000			61.892			-5.627
22505.000			61.886			-5.626
22603.000			61.882			-5.626
22704.000			61.878			-5.625
22805.000			61.873			-5.625
22904.000			61.863			-5.624
23004.000			61.860			-5.624
23104.000			61.856			-5.623
23204.000			61.852			-5.623
23304.000			61.848			-5.623
23405.000			61.843			-5.622
23504.000			61.839			-5.622
23604.000			61.830			-5.621
23705.000			61.827			-5.621
23803.000			61.822			-5.620
23904.000			61.818			-5.620
24005.000			61.814			-5.619
24104.000			61.811			-5.619
24204.000			61.806			-5.619
24305.000			61.797			-5.618
24404.000			61.793			-5.618
24503.000			61.788			-5.617
24605.000			61.784			-5.617
24704.000			61.781			-5.616
24804.000			61.776			-5.616
24905.000			61.771			-5.616
25004.000			61.768			-5.615
25105.000			61.760			-5.615
25203.000			61.757			-5.614
25304.000			61.753			-5.614
25405.000			61.748			-5.613
25504.000			61.744			-5.613
25604.000			61.741			-5.613
25705.000			61.737			-5.612
25804.000			61.730			-5.612
25903.000			61.726			-5.611
26005.000			61.722			-5.611
26104.000			61.719			-5.611
26204.000			61.716			-5.611
26305.000			61.711			-5.610
26404.000			61.707			-5.610
26504.000			61.700			-5.609
26604.000			61.696			-5.609
26704.000			61.693			-5.608
26804.000			61.689			-5.608
26905.000			61.685			-5.608
27004.000			61.681			-5.607
27104.000			61.677			-5.607
27205.000			61.670			-5.606
27303.000			61.667			-5.606
27404.000			61.663			-5.606
27505.000			61.658			-5.605
27604.000			61.655			-5.605
27704.000			61.652			-5.605
27804.000			61.648			-5.604
27904.000			61.644			-5.604
28003.000			61.636			-5.603
28105.000			61.633			-5.603
28204.000			61.629			-5.603
28305.000			61.626			-5.602
28404.000			61.623			-5.602
28503.000			61.619			-5.602
28605.000			61.614			-5.601
28704.000			61.608			-5.601
28804.000			61.605			-5.600
28905.000			61.602			-5.600
29004.000			61.599			-5.600
29104.000			61.595			-5.600
29204.000			61.591			-5.599
29304.000			61.587			-5.599
29404.000			61.580			-5.598
29505.000			61.578			-5.598
29604.000			61.574			-5.598
29704.000			61.571			-5.597
29805.000			61.568			-5.597
29903.000			61.564			-5.597
30004.000			61.561			-5.596
30105.000			61.555			-5.596
30204.000			61.552			-5.596
30304.000			61.548			-5.595
30405.000			61.545			-5.595
30504.000			61.541			-5.595
30603.000			61.538			-5.594
30705.000			61.534			-5.594
30804.000			61.532			-5.594
30904.000			61.524			-5.593
31005.000			61.521			-5.593
31104.000			61.518			-5.593
31204.000			61.514			-5.592
31303.000			61.511			-5.592
31404.000			61.507			-5.592
31505.000			61.504			-5.591
31604.000			61.498			-5.591
31704.000			61.496			-5.591
31805.000			61.493			-5.590
31904.000			61.490			-5.590
32003.000			61.486			-5.590
32105.000			61.483			-5.589
32204.000			61.480			-5.589
32304.000			61.473			-5.588
32405.000			61.469			-5.588
32504.000			61.466			-5.588
32604.000			61.464			-5.588
32704.000			61.462			-5.587
32804.000			61.458			-5.587
32904.000			61.455			-5.587
33005.000			61.448			-5.586
33104.000			61.445			-5.586
33203.000			61.442			-5.586
33305.000			61.439			-5.585
33404.000			61.436			-5.585
33504.000			61.434			-5.585
33605.000			61.430			-5.585
33704.000			61.427			-5.584
33804.000			61.421			-5.584
33904.000			61.418			-5.583
34004.000			61.415			-5.583
34104.000			61.412			-5.583
34205.000			61.409			-5.583
34304.000			61.406			-5.582
34404.000			61.403			-5.582
34505.000			61.398			-5.582
34603.000			61.395			-5.581
34705.000			61.391			-5.581
34804.000			61.389			-5.581
34904.000			61.385			-5.580
35005.000			61.381			-5.580
35104.000			61.380			-5.580
35204.000			61.375			-5.580
35304.000			61.372			-5.579
35404.000			61.368			-5.579
35504.000			61.365			-5.579
35605.000			61.361			-5.578
35704.000			61.359			-5.578
35804.000			61.357			-5.578
35905.000			61.351			-5.577
36003.000			61.348			-5.577
36104.000			61.345			-5.577
36205.000			61.343			-5.577
36304.000			61.339			-5.576
36404.000			61.336			-5.576
36504.000			61.332			-5.576
36604.000			61.330			-5.575
36704.000			61.327			-5.575
36805.000			61.323			-5.575
36904.000			61.320			-5.575
37004.000			61.318			-5.574
37105.000			61.314			-5.574
37203.000			61.313			-5.574
37304.000			61.310			-5.574
37405.000			61.303			-5.573
37504.000			61.300			-5.573
37604.000			61.297			-5.572
37704.000			61.296			-5.572
37804.000			61.293			-5.572
37904.000			61.290			-5.572
38004.000			61.287			-5.572
38104.000			61.282			-5.571
38205.000			61.279			-5.571
38304.000			61.276			-5.571
38404.000			61.273			-5.570
38505.000			61.270			-5.570
38603.000			61.268			-5.570
38704.000			61.266			-5.570
38805.000			61.261			-5.569
38904.000			61.258			-5.569
39004.000			61.255			-5.569
39105.000			61.252			-5.568
39204.000			61.250			-5.568
39303.000			61.248			-5.568
39405.000			61.244			-5.568
39504.000			61.242			-5.567
39604.000			61.237			-5.567
39705.000			61.234			-5.567
39804.000			61.232			-5.567
39904.000			61.230			-5.566
40004.000			61.227			-5.566
40104.000			61.224			-5.566
40204.000			61.222			-5.566
40305.000			61.217			-5.565
40404.000			61.214			-5.565
40503.000			61.212			-5.565
40605.000			61.210			-5.565
40704.000			61.208			-5.564
40804.000			61.205			-5.564
40905.000			61.202			-5.564
41004.000			61.196			-5.563
41105.000			61.194			-5.563
41203.000			61.191			-5.563
41304.000			61.188			-5.563
41405.000			61.186			-5.562
41504.000			61.184			-5.562
41604.000			61.181			-5.562
41705.000			61.179			-5.562
41804.000			61.174			-5.561
41903.000			61.173			-5.561
42005.000			61.169			-5.561
42104.000			61.167			-5.561
42204.000			61.164			-5.560
42305.000			61.161			-5.560
42403.000			61.159			-5.560
42504.000			61.154			-5.559
42605.000			61.151			-5.559
42704.000			61.149			-5.559
42804.000			61.146			-5.559
42905.000			61.144			-5.559
43004.000			61.141			-5.558
43103.000			61.140			-5.558
43205.000			61.135			-5.558
43304.000			61.133			-5.558
43404.000			61.130			-5.557
43505.000			61.129			-5.557
43604.000			61.125			-5.557
43704.000			61.122			-5.557
43804.000			61.120			-5.556
43904.000			61.115			-5.556
44004.000			61.114			-5.556
44104.000			61.113			-5.556
44204.000			61.110			-5.555
44304.000			61.108			-5.555
44404.000			61.105			-5.555
44504.000			61.103			-5.555
44605.000			61.097			-5.554
44704.000			61.094			-5.554
44804.000			61.093			-5.554
44905.000			61.091			-5.554
45003.000			61.090			-5.554
45104.000			61.088			-5.553
45205.000			61.085			-5.553
45304.000			61.083			-5.553
45404.000			61.077			-5.552
45505.000			61.075			-5.552
45604.000			61.073			-5.552
45703.000			61.070			-5.552
45805.000			61.067			-5.552
45904.000			61.065			-5.551
46004.000			61.063			-5.551
46105.000			61.058			-5.551
46204.000			61.057			-5.551
46304.000			61.054			-5.550
46404.000			61.052			-5.550
46504.000			61.049			-5.550
46604.000			61.049			-5.550
46705.000			61.046			-5.550
46804.000			61.042			-5.549
46904.000			61.040			-5.549
47005.000			61.038			-5.549
47103.000			61.035			-5.549
47204.000			61.033			-5.548
47305.000			61.030			-5.548
47404.000			61.028			-5.548
47505.000			61.024			-5.548
47603.000			61.021			-5.547
47704.000			61.019			-5.547
47805.000			61.017			-5.547
47904.000			61.014			-5.547
48004.000			61.013			-5.547
48105.000			61.010			-5.546
48204.000			61.009			-5.546
48303.000			61.004			-5.546
48405.000			61.001			-5.546
48504.000			61.000			-5.545
48604.000			60.998			-5.545
48705.000			60.995			-5.545
48804.000			60.993			-5.545
48904.000			60.990			-5.545
49004.000			60.988			-5.544
49104.000			60.986			-5.544
49204.000			60.983			-5.544
49305.000			60.982			-5.544
49404.000			60.979			-5.544
49504.000			60.977			-5.543
49605.000			60.974			-5.543
49703.000			60.969			-5.543
49804.000			60.967			-5.542
49904.000			60.966			-5.542
50004.000			60.964			-5.542
50104.000			60.962			-5.542
50205.000			60.959			-5.542
50304.000			60.957			-5.542
50403.000			60.952			-5.541
50505.000			60.950			-5.541
50604.000			60.949			-5.541
50705.000			60.946			-5.541
50804.000			60.944			-5.540
50904.000			60.942			-5.540
51005.000			60.941			-5.540
51103.000			60.938			-5.540
51204.000			60.935			-5.540
51305.000			60.934			-5.539
51404.000			60.931			-5.539
51504.000			60.928			-5.539
51605.000			60.925			-5.539
51704.000			60.924			-5.539
51803.000			60.923			-5.538
51905.000			60.918			-5.538
52004.000			60.916			-5.538
52104.000			60.915			-5.538
52205.000			60.912			-5.537
52304.000			60.910			-5.537
52404.000			60.909			-5.537
52504.000			60.907			-5.537
52604.000			60.901			-5.536
52704.000			60.900			-5.536
52805.000			60.899			-5.536
52904.000			60.897			-5.536
53004.000			60.893			-5.536
53105.000			60.892			-5.536
53203.000			60.890			-5.535
53304.000			60.887			-5.535
53405.000			60.885			-5.535
53504.000			60.883			-5.535
53604.000			60.881			-5.535
53704.000			60.879			-5.534
53804.000			60.877			-5.534
53904.000			60.876			-5.534
54004.000			60.873			-5.534
54104.000			60.868			-5.533
54205.000			60.867			-5.533
54304.000			60.865			-5.533
54404.000			60.862			-5.533
54505.000			60.861			-5.533
54603.000			60.859			-5.533
54704.000			60.856			-5.532
54805.000			60.853			-5.532
54904.000			60.852			-5.532
55004.000			60.850			-5.532
55105.000			60.846			-5.531
55204.000			60.844			-5.531
55303.000			60.844			-5.531
55405.000			60.842			-5.531
55504.000			60.838			-5.531
55604.000			60.837			-5.531
55705.000			60.835			-5.530
55804.000			60.832			-5.530
55904.000			60.831			-5.530
56004.000			60.829			-5.530
56104.000			60.827			-5.530
56204.000			60.824			-5.529
56305.000			60.821			-5.529
56404.000			60.819			-5.529
56504.000			60.818			-5.529
56605.000			60.815			-5.529
56703.000			60.814			-5.529
56804.000			60.813			-5.528
56905.000			60.810			-5.528
57004.000			60.805			-5.528
57105.000			60.803			-5.528
57204.000			60.801			-5.527
57304.000			60.799			-5.527
57404.000			60.798			-5.527
57504.000			60.797			-5.527
57604.000			60.796			-5.527
57705.000			60.792			-5.527
57804.000			60.790			-5.526
57904.000			60.788			-5.526
58005.000			60.786			-5.526
58103.000			60.784			-5.526
58204.000			60.782			-5.526
58305.000			60.780			-5.525
58404.000			60.777			-5.525
58504.000			60.776			-5.525
58605.000			60.773			-5.525
58704.000			60.772			-5.525
58803.000			60.770			-5.525
58905.000			60.768			-5.524
59004.000			60.767			-5.524
59104.000			60.762			-5.524
59205.000			60.760			-5.524
59304.000			60.758			-5.523
59404.000			60.757			-5.523
59504.000			60.756			-5.523
59604.000			60.755			-5.523
59704.000			60.752			-5.523
59805.000			60.750			-5.523
59904.000			60.747			-5.522
60004.000			60.744			-5.522
60105.000			60.742			-5.522
60203.000			60.742			-5.522
60305.000			60.740			-5.522
60404.000			60.738			-5.522
60504.000			60.736			-5.521
60605.000			60.732			-5.521
60704.000			60.731			-5.521
60804.000			60.729			-5.521
60904.000			60.727			-5.521
61004.000			60.725			-5.520
61104.000			60.723			-5.520
61205.000			60.722			-5.520
61304.000			60.718			-5.520
61403.000			60.717			-5.520
61505.000			60.715			-5.520
61604.000			60.712			-5.519
61704.000			60.711			-5.519
61805.000			60.710			-5.519
61904.000			60.708			-5.519
62004.000			60.704			-5.519
62104.000			60.702			-5.518
62204.000			60.701			-5.518
62304.000			60.700			-5.518
62405.000			60.699			-5.518
62504.000			60.697			-5.518
62604.000			60.696			-5.518
62705.000			60.692			-5.517
62803.000			60.690			-5.517
62904.000			60.688			-5.517
63005.000			60.685			-5.517
63104.000			60.684			-5.517
63204.000			60.683			-5.517
63304.000			60.681			-5.516
63404.000			60.680			-5.516
63504.000			60.676			-5.516
63604.000			60.674			-5.516
63704.000			60.672			-5.516
63805.000			60.671			-5.516
63904.000			60.670			-5.515
64004.000			60.669			-5.515
64105.000			60.666			-5.515
64203.000			60.664			-5.515
64304.000			60.662			-5.515
64405.000			60.659			-5.514
64504.000			60.657			-5.514
64604.000			60.656			-5.514
64705.000			60.654			-5.514
64804.000			60.653			-5.514
64903.000			60.649			-5.514
65005.000			60.648			-5.513
65104.000			60.646			-5.513
65204.000			60.644			-5.513
65305.000			60.642			-5.513
65404.000			60.641			-5.513
65504.000			60.639			-5.513
65604.000			60.637			-5.512
65704.000			60.634			-5.512
65804.000			60.634			-5.512
65905.000			60.633			-5.512
66004.000			60.632			-5.512
66104.000			60.629			-5.512
66205.000			60.628			-5.512
66303.000			60.627			-5.512
66404.000			60.623			-5.511
66505.000			60.620			-5.511
66604.000			60.619			-5.511
66705.000			60.617			-5.511
66804.000			60.616			-5.511
66904.000			60.614			-5.510
67004.000			60.612			-5.510
67104.000			60.610			-5.510
67204.000			60.607			-5.510
67305.000			60.606			-5.510
67404.000			60.605			-5.510
67504.000			60.602			-5.509
67605.000			60.600			-5.509
67703.000			60.600			-5.509
67804.000			60.596			-5.509
67905.000			60.596			-5.509
68004.000			60.594			-5.509
68104.000			60.591			-5.508
68205.000			60.590			-5.508
68304.000			60.589			-5.508
68403.000			60.588			-5.508
68505.000			60.586			-5.508
68604.000			60.583			-5.508
68704.000			60.580			-5.507
68805.000			60.580			-5.507
68904.000			60.577			-5.507
69004.000			60.576			-5.507
69104.000			60.576			-5.507
69204.000			60.574			-5.507
69304.000			60.570			-5.506
69405.000			60.569			-5.506
69504.000			60.568			-5.506
69604.000			60.566			-5.506
69705.000			60.565			-5.506
69803.000			60.563			-5.506
69905.000			60.562			-5.506
70003.000			60.560			-5.505
70104.000			60.557			-5.505
70205.000			60.556			-5.505
70304.000			60.555			-5.505
70404.000			60.553			-5.505
70504.000			60.551			-5.505
70604.000			60.549			-5.504
70704.000			60.547			-5.504
70805.000			60.545			-5.504
70904.000			60.543			-5.504
71004.000			60.542			-5.504
71105.000			60.541			-5.504
71203.000			60.538			-5.503
