# Acquired on 26/01/2024 13:37:13 
# SPIDER: Creep_5mm_HM077x145x38AA-2
# CREEP MEASUREMENT

# time [ms]		force [N]		stiffness [N/mm]
0.000			-24.758			-4.952
104.000			-25.646			-5.129
204.000			-25.866			-5.173
305.000			-25.772			-5.154
404.000			-25.694			-5.139
504.000			-25.605			-5.121
605.000			-25.569			-5.114
704.000			-25.536			-5.107
803.000			-25.507			-5.101
905.000			-25.480			-5.096
1004.000			-25.454			-5.091
1104.000			-25.432			-5.086
1205.000			-25.389			-5.078
1303.000			-25.371			-5.074
1404.000			-25.354			-5.071
1505.000			-25.338			-5.068
1604.000			-25.321			-5.064
1704.000			-25.305			-5.061
1805.000			-25.289			-5.058
1904.000			-25.262			-5.052
2003.000			-25.249			-5.050
2105.000			-25.237			-5.047
2204.000			-25.226			-5.045
2304.000			-25.214			-5.043
2405.000			-25.202			-5.040
2503.000			-25.192			-5.038
2604.000			-25.181			-5.036
2705.000			-25.161			-5.032
2804.000			-25.152			-5.030
2905.000			-25.143			-5.029
3004.000			-25.133			-5.027
3104.000			-25.125			-5.025
3204.000			-25.116			-5.023
3304.000			-25.107			-5.021
3404.000			-25.090			-5.018
3505.000			-25.083			-5.017
3604.000			-25.075			-5.015
3704.000			-25.067			-5.013
3805.000			-25.059			-5.012
3904.000			-25.053			-5.011
4004.000			-25.046			-5.009
4105.000			-25.032			-5.006
4204.000			-25.025			-5.005
4304.000			-25.018			-5.004
4404.000			-25.013			-5.003
4504.000			-25.006			-5.001
4604.000			-24.999			-5.000
4705.000			-24.993			-4.999
4804.000			-24.980			-4.996
4904.000			-24.975			-4.995
5005.000			-24.970			-4.994
5103.000			-24.964			-4.993
5204.000			-24.958			-4.992
5305.000			-24.953			-4.991
5404.000			-24.948			-4.990
5504.000			-24.943			-4.989
5605.000			-24.932			-4.986
5704.000			-24.927			-4.985
5803.000			-24.923			-4.985
5905.000			-24.917			-4.983
6004.000			-24.912			-4.982
6105.000			-24.908			-4.982
6204.000			-24.904			-4.981
6303.000			-24.894			-4.979
6405.000			-24.889			-4.978
6504.000			-24.885			-4.977
6604.000			-24.881			-4.976
6705.000			-24.876			-4.975
6804.000			-24.872			-4.974
6904.000			-24.868			-4.974
7004.000			-24.859			-4.972
7104.000			-24.855			-4.971
7204.000			-24.851			-4.970
7305.000			-24.845			-4.969
7404.000			-24.842			-4.968
7504.000			-24.838			-4.968
7605.000			-24.834			-4.967
7703.000			-24.831			-4.966
7804.000			-24.824			-4.965
7905.000			-24.819			-4.964
8004.000			-24.815			-4.963
8104.000			-24.812			-4.962
8204.000			-24.808			-4.962
8304.000			-24.803			-4.961
8404.000			-24.800			-4.960
8505.000			-24.794			-4.959
8604.000			-24.791			-4.958
8704.000			-24.787			-4.957
8805.000			-24.783			-4.957
8903.000			-24.779			-4.956
9004.000			-24.776			-4.955
9105.000			-24.773			-4.955
9204.000			-24.767			-4.953
9305.000			-24.764			-4.953
9404.000			-24.761			-4.952
9504.000			-24.757			-4.951
9604.000			-24.753			-4.951
9704.000			-24.749			-4.950
9804.000			-24.746			-4.949
9905.000			-24.741			-4.948
10004.000			-24.739			-4.948
10104.000			-24.735			-4.947
10205.000			-24.732			-4.946
10303.000			-24.729			-4.946
10404.000			-24.726			-4.945
10505.000			-24.723			-4.945
10604.000			-24.719			-4.944
10704.000			-24.714			-4.943
10804.000			-24.711			-4.942
10904.000			-24.708			-4.942
11004.000			-24.705			-4.941
11105.000			-24.703			-4.941
11204.000			-24.700			-4.940
11304.000			-24.697			-4.939
11405.000			-24.692			-4.938
11503.000			-24.689			-4.938
11604.000			-24.687			-4.937
11705.000			-24.683			-4.937
11804.000			-24.681			-4.936
11904.000			-24.679			-4.936
12005.000			-24.677			-4.935
12104.000			-24.670			-4.934
12203.000			-24.667			-4.933
12305.000			-24.665			-4.933
12404.000			-24.662			-4.932
12505.000			-24.659			-4.932
12604.000			-24.658			-4.932
12704.000			-24.656			-4.931
12805.000			-24.651			-4.930
12903.000			-24.649			-4.930
13004.000			-24.646			-4.929
13105.000			-24.644			-4.929
13204.000			-24.641			-4.928
13304.000			-24.640			-4.928
13405.000			-24.638			-4.928
13504.000			-24.636			-4.927
13603.000			-24.630			-4.926
13705.000			-24.627			-4.925
13804.000			-24.626			-4.925
13904.000			-24.624			-4.925
14005.000			-24.621			-4.924
14104.000			-24.619			-4.924
14204.000			-24.617			-4.923
14304.000			-24.613			-4.923
14404.000			-24.610			-4.922
14504.000			-24.607			-4.921
14605.000			-24.606			-4.921
14704.000			-24.604			-4.921
14803.000			-24.602			-4.920
14905.000			-24.600			-4.920
15004.000			-24.595			-4.919
15104.000			-24.593			-4.919
15205.000			-24.592			-4.918
15304.000			-24.589			-4.918
15404.000			-24.586			-4.917
15503.000			-24.584			-4.917
15604.000			-24.582			-4.916
15705.000			-24.579			-4.916
15804.000			-24.577			-4.915
15904.000			-24.574			-4.915
16005.000			-24.573			-4.915
16104.000			-24.571			-4.914
16203.000			-24.568			-4.914
16305.000			-24.567			-4.913
16404.000			-24.564			-4.913
16504.000			-24.561			-4.912
16605.000			-24.559			-4.912
16704.000			-24.557			-4.911
16804.000			-24.554			-4.911
16904.000			-24.553			-4.911
17004.000			-24.551			-4.910
17104.000			-24.548			-4.910
17205.000			-24.546			-4.909
17304.000			-24.545			-4.909
17404.000			-24.542			-4.908
17505.000			-24.541			-4.908
17603.000			-24.539			-4.908
17704.000			-24.536			-4.907
17805.000			-24.535			-4.907
17904.000			-24.532			-4.906
18004.000			-24.530			-4.906
18105.000			-24.528			-4.906
18204.000			-24.526			-4.905
18303.000			-24.525			-4.905
18405.000			-24.523			-4.905
18504.000			-24.521			-4.904
18604.000			-24.517			-4.903
18705.000			-24.515			-4.903
18804.000			-24.515			-4.903
18905.000			-24.513			-4.903
19003.000			-24.511			-4.902
19104.000			-24.509			-4.902
19205.000			-24.508			-4.902
19304.000			-24.505			-4.901
19404.000			-24.502			-4.900
19505.000			-24.500			-4.900
19604.000			-24.499			-4.900
19703.000			-24.497			-4.899
19805.000			-24.496			-4.899
19904.000			-24.494			-4.899
20004.000			-24.492			-4.898
20105.000			-24.490			-4.898
20204.000			-24.489			-4.898
20304.000			-24.487			-4.897
20404.000			-24.485			-4.897
20504.000			-24.484			-4.897
20604.000			-24.482			-4.896
20705.000			-24.480			-4.896
20804.000			-24.476			-4.895
20903.000			-24.475			-4.895
21005.000			-24.474			-4.895
21104.000			-24.473			-4.895
21204.000			-24.472			-4.894
21305.000			-24.469			-4.894
21404.000			-24.467			-4.893
21504.000			-24.465			-4.893
21604.000			-24.464			-4.893
21704.000			-24.462			-4.892
21804.000			-24.461			-4.892
21904.000			-24.460			-4.892
22004.000			-24.459			-4.892
22105.000			-24.457			-4.891
22204.000			-24.455			-4.891
22303.000			-24.452			-4.890
22405.000			-24.450			-4.890
22504.000			-24.448			-4.890
22604.000			-24.447			-4.889
22705.000			-24.446			-4.889
22804.000			-24.445			-4.889
22904.000			-24.442			-4.888
23004.000			-24.440			-4.888
23104.000			-24.439			-4.888
23204.000			-24.439			-4.888
23305.000			-24.437			-4.887
23404.000			-24.436			-4.887
23504.000			-24.434			-4.887
23605.000			-24.432			-4.886
23704.000			-24.430			-4.886
23804.000			-24.428			-4.886
23905.000			-24.426			-4.885
24004.000			-24.425			-4.885
24104.000			-24.425			-4.885
24204.000			-24.424			-4.885
24304.000			-24.422			-4.884
24404.000			-24.418			-4.884
24505.000			-24.416			-4.883
24604.000			-24.416			-4.883
24704.000			-24.415			-4.883
24805.000			-24.413			-4.883
24903.000			-24.412			-4.882
25004.000			-24.410			-4.882
25105.000			-24.408			-4.882
25204.000			-24.407			-4.881
25305.000			-24.405			-4.881
25404.000			-24.404			-4.881
25504.000			-24.403			-4.881
25604.000			-24.401			-4.880
25704.000			-24.400			-4.880
25804.000			-24.400			-4.880
25905.000			-24.397			-4.879
26004.000			-24.395			-4.879
26103.000			-24.394			-4.879
26205.000			-24.393			-4.879
26304.000			-24.391			-4.878
26404.000			-24.391			-4.878
26505.000			-24.390			-4.878
26604.000			-24.387			-4.877
26704.000			-24.386			-4.877
26804.000			-24.384			-4.877
26904.000			-24.382			-4.876
27003.000			-24.382			-4.876
27105.000			-24.382			-4.876
27204.000			-24.381			-4.876
27304.000			-24.377			-4.875
27405.000			-24.375			-4.875
27503.000			-24.375			-4.875
27604.000			-24.373			-4.875
27705.000			-24.372			-4.874
27804.000			-24.371			-4.874
27904.000			-24.369			-4.874
28005.000			-24.368			-4.874
28104.000			-24.367			-4.873
28203.000			-24.366			-4.873
28305.000			-24.364			-4.873
28404.000			-24.362			-4.872
28505.000			-24.361			-4.872
28604.000			-24.361			-4.872
28704.000			-24.359			-4.872
28805.000			-24.357			-4.871
28903.000			-24.355			-4.871
29004.000			-24.353			-4.871
29105.000			-24.353			-4.871
29204.000			-24.352			-4.870
29304.000			-24.351			-4.870
29405.000			-24.349			-4.870
29504.000			-24.348			-4.870
29603.000			-24.346			-4.869
29705.000			-24.345			-4.869
29804.000			-24.345			-4.869
29904.000			-24.344			-4.869
30005.000			-24.342			-4.868
30104.000			-24.341			-4.868
30204.000			-24.339			-4.868
30304.000			-24.337			-4.867
30404.000			-24.336			-4.867
30504.000			-24.335			-4.867
30605.000			-24.334			-4.867
30704.000			-24.334			-4.867
30804.000			-24.334			-4.867
30905.000			-24.330			-4.866
31003.000			-24.329			-4.866
31104.000			-24.329			-4.866
31205.000			-24.327			-4.865
31304.000			-24.326			-4.865
31404.000			-24.325			-4.865
31503.000			-24.323			-4.865
31604.000			-24.323			-4.865
31705.000			-24.321			-4.864
31804.000			-24.320			-4.864
31904.000			-24.319			-4.864
32005.000			-24.317			-4.863
32104.000			-24.317			-4.863
32203.000			-24.316			-4.863
32305.000			-24.315			-4.863
32404.000			-24.313			-4.863
32504.000			-24.312			-4.862
32605.000			-24.310			-4.862
32704.000			-24.309			-4.862
32804.000			-24.309			-4.862
32904.000			-24.308			-4.862
33004.000			-24.307			-4.861
33104.000			-24.303			-4.861
33205.000			-24.302			-4.860
33304.000			-24.302			-4.860
33403.000			-24.300			-4.860
33505.000			-24.299			-4.860
33604.000			-24.299			-4.860
33704.000			-24.298			-4.860
33805.000			-24.296			-4.859
33904.000			-24.295			-4.859
34004.000			-24.295			-4.859
34104.000			-24.294			-4.859
34204.000			-24.292			-4.858
34304.000			-24.291			-4.858
34405.000			-24.290			-4.858
34504.000			-24.288			-4.858
34604.000			-24.286			-4.857
34705.000			-24.287			-4.857
34803.000			-24.286			-4.857
34905.000			-24.284			-4.857
35004.000			-24.283			-4.857
35104.000			-24.282			-4.856
35205.000			-24.281			-4.856
35304.000			-24.280			-4.856
35404.000			-24.278			-4.856
35504.000			-24.277			-4.855
35604.000			-24.276			-4.855
35704.000			-24.275			-4.855
35805.000			-24.275			-4.855
35904.000			-24.274			-4.855
36004.000			-24.271			-4.854
36105.000			-24.271			-4.854
36203.000			-24.270			-4.854
36304.000			-24.269			-4.854
36405.000			-24.267			-4.853
36504.000			-24.267			-4.853
36604.000			-24.267			-4.853
36704.000			-24.264			-4.853
36804.000			-24.263			-4.853
36903.000			-24.262			-4.852
37005.000			-24.262			-4.852
37104.000			-24.262			-4.852
37204.000			-24.260			-4.852
37305.000			-24.259			-4.852
37403.000			-24.259			-4.852
37504.000			-24.258			-4.852
37605.000			-24.257			-4.851
37704.000			-24.255			-4.851
37804.000			-24.254			-4.851
37904.000			-24.253			-4.851
38004.000			-24.252			-4.850
38104.000			-24.252			-4.850
38204.000			-24.250			-4.850
38304.000			-24.249			-4.850
38405.000			-24.248			-4.850
38504.000			-24.248			-4.850
38604.000			-24.247			-4.849
38705.000			-24.244			-4.849
38803.000			-24.243			-4.849
38904.000			-24.243			-4.849
39005.000			-24.243			-4.849
39104.000			-24.241			-4.848
39204.000			-24.240			-4.848
39305.000			-24.240			-4.848
39404.000			-24.239			-4.848
39503.000			-24.238			-4.848
39605.000			-24.237			-4.847
39704.000			-24.236			-4.847
39804.000			-24.234			-4.847
39905.000			-24.233			-4.847
40004.000			-24.233			-4.847
40104.000			-24.233			-4.847
40204.000			-24.232			-4.846
40304.000			-24.230			-4.846
40404.000			-24.230			-4.846
40505.000			-24.229			-4.846
40604.000			-24.227			-4.845
40703.000			-24.226			-4.845
40805.000			-24.225			-4.845
40904.000			-24.226			-4.845
41004.000			-24.225			-4.845
41105.000			-24.223			-4.845
41204.000			-24.222			-4.844
41305.000			-24.221			-4.844
41403.000			-24.220			-4.844
41504.000			-24.219			-4.844
41605.000			-24.218			-4.844
41704.000			-24.217			-4.843
41804.000			-24.217			-4.843
41905.000			-24.217			-4.843
42004.000			-24.216			-4.843
42103.000			-24.215			-4.843
42205.000			-24.213			-4.843
42304.000			-24.212			-4.842
42404.000			-24.211			-4.842
42505.000			-24.209			-4.842
42603.000			-24.208			-4.842
42704.000			-24.208			-4.842
42805.000			-24.207			-4.841
42904.000			-24.206			-4.841
43004.000			-24.206			-4.841
43105.000			-24.205			-4.841
43204.000			-24.204			-4.841
43303.000			-24.202			-4.840
43405.000			-24.202			-4.840
43504.000			-24.201			-4.840
43604.000			-24.199			-4.840
43705.000			-24.199			-4.840
43804.000			-24.199			-4.840
43904.000			-24.196			-4.839
44004.000			-24.197			-4.839
44104.000			-24.196			-4.839
44204.000			-24.195			-4.839
44304.000			-24.193			-4.839
44404.000			-24.194			-4.839
44504.000			-24.193			-4.839
44604.000			-24.192			-4.838
44703.000			-24.190			-4.838
44805.000			-24.189			-4.838
44904.000			-24.189			-4.838
45004.000			-24.188			-4.838
45105.000			-24.187			-4.837
45203.000			-24.187			-4.837
45304.000			-24.186			-4.837
45405.000			-24.185			-4.837
45504.000			-24.183			-4.837
45604.000			-24.182			-4.836
45705.000			-24.182			-4.836
45804.000			-24.182			-4.836
45903.000			-24.180			-4.836
46005.000			-24.180			-4.836
46104.000			-24.180			-4.836
46204.000			-24.179			-4.836
46305.000			-24.177			-4.835
46404.000			-24.176			-4.835
46504.000			-24.175			-4.835
46604.000			-24.175			-4.835
46704.000			-24.175			-4.835
46804.000			-24.174			-4.835
46905.000			-24.173			-4.835
47004.000			-24.173			-4.835
47104.000			-24.171			-4.834
47205.000			-24.171			-4.834
47303.000			-24.170			-4.834
47404.000			-24.168			-4.834
47505.000			-24.168			-4.834
47604.000			-24.167			-4.833
47705.000			-24.166			-4.833
47804.000			-24.165			-4.833
47904.000			-24.165			-4.833
48004.000			-24.164			-4.833
48104.000			-24.162			-4.832
48204.000			-24.162			-4.832
48305.000			-24.161			-4.832
48404.000			-24.160			-4.832
48504.000			-24.159			-4.832
48605.000			-24.159			-4.832
48703.000			-24.158			-4.832
48804.000			-24.157			-4.831
48905.000			-24.156			-4.831
49004.000			-24.156			-4.831
49104.000			-24.153			-4.831
49205.000			-24.153			-4.831
49304.000			-24.152			-4.830
49403.000			-24.152			-4.830
49505.000			-24.152			-4.830
49604.000			-24.151			-4.830
49704.000			-24.149			-4.830
49805.000			-24.148			-4.830
49904.000			-24.147			-4.829
50004.000			-24.147			-4.829
50104.000			-24.147			-4.829
50204.000			-24.146			-4.829
50304.000			-24.145			-4.829
50405.000			-24.144			-4.829
50504.000			-24.142			-4.828
50603.000			-24.141			-4.828
50705.000			-24.140			-4.828
50804.000			-24.140			-4.828
50905.000			-24.139			-4.828
51004.000			-24.138			-4.828
51104.000			-24.139			-4.828
51205.000			-24.138			-4.828
51303.000			-24.136			-4.827
51404.000			-24.135			-4.827
51505.000			-24.134			-4.827
51604.000			-24.134			-4.827
51704.000			-24.133			-4.827
51805.000			-24.132			-4.826
51904.000			-24.132			-4.826
52003.000			-24.131			-4.826
52105.000			-24.130			-4.826
52204.000			-24.129			-4.826
52304.000			-24.129			-4.826
52405.000			-24.128			-4.826
52504.000			-24.128			-4.826
52604.000			-24.127			-4.825
52704.000			-24.126			-4.825
52804.000			-24.126			-4.825
52904.000			-24.125			-4.825
53005.000			-24.124			-4.825
53104.000			-24.122			-4.824
53203.000			-24.122			-4.824
53305.000			-24.121			-4.824
53404.000			-24.119			-4.824
53504.000			-24.118			-4.824
53605.000			-24.118			-4.824
53704.000			-24.118			-4.824
53804.000			-24.118			-4.824
53903.000			-24.116			-4.823
54004.000			-24.116			-4.823
54105.000			-24.115			-4.823
54204.000			-24.114			-4.823
54304.000			-24.114			-4.823
54404.000			-24.113			-4.823
54504.000			-24.112			-4.822
54604.000			-24.111			-4.822
54705.000			-24.111			-4.822
54804.000			-24.110			-4.822
54904.000			-24.110			-4.822
55005.000			-24.109			-4.822
55103.000			-24.108			-4.822
55204.000			-24.108			-4.822
55305.000			-24.108			-4.822
55404.000			-24.108			-4.822
55504.000			-24.107			-4.821
55605.000			-24.105			-4.821
55704.000			-24.104			-4.821
55803.000			-24.103			-4.821
55905.000			-24.103			-4.821
56004.000			-24.102			-4.820
56104.000			-24.102			-4.820
56205.000			-24.101			-4.820
56303.000			-24.100			-4.820
56404.000			-24.100			-4.820
56505.000			-24.099			-4.820
56604.000			-24.099			-4.820
56704.000			-24.099			-4.820
56805.000			-24.098			-4.820
56904.000			-24.097			-4.819
57003.000			-24.097			-4.819
57105.000			-24.096			-4.819
57204.000			-24.095			-4.819
57305.000			-24.094			-4.819
57404.000			-24.093			-4.819
57504.000			-24.093			-4.819
57605.000			-24.092			-4.818
57703.000			-24.092			-4.818
57804.000			-24.090			-4.818
57905.000			-24.089			-4.818
58004.000			-24.088			-4.818
58104.000			-24.088			-4.818
58205.000			-24.087			-4.817
58304.000			-24.087			-4.817
58403.000			-24.088			-4.818
58505.000			-24.086			-4.817
58604.000			-24.085			-4.817
58704.000			-24.085			-4.817
58805.000			-24.084			-4.817
58904.000			-24.084			-4.817
59004.000			-24.083			-4.817
59104.000			-24.082			-4.816
59204.000			-24.081			-4.816
59303.000			-24.080			-4.816
59405.000			-24.078			-4.816
59504.000			-24.077			-4.815
59604.000			-24.076			-4.815
59705.000			-24.077			-4.815
59804.000			-24.077			-4.815
59904.000			-24.077			-4.815
60004.000			-24.076			-4.815
60104.000			-24.075			-4.815
60204.000			-24.075			-4.815
60304.000			-24.075			-4.815
60404.000			-24.074			-4.815
60504.000			-24.073			-4.815
60604.000			-24.072			-4.814
60704.000			-24.072			-4.814
60805.000			-24.071			-4.814
60904.000			-24.071			-4.814
61004.000			-24.070			-4.814
61105.000			-24.070			-4.814
61203.000			-24.069			-4.814
61304.000			-24.068			-4.814
61405.000			-24.067			-4.813
61504.000			-24.067			-4.813
61604.000			-24.066			-4.813
61705.000			-24.065			-4.813
61804.000			-24.066			-4.813
61903.000			-24.065			-4.813
62005.000			-24.063			-4.813
62104.000			-24.063			-4.813
62204.000			-24.063			-4.813
62305.000			-24.062			-4.812
62404.000			-24.061			-4.812
62504.000			-24.061			-4.812
62604.000			-24.061			-4.812
62704.000			-24.059			-4.812
62804.000			-24.059			-4.812
62905.000			-24.057			-4.811
63004.000			-24.057			-4.811
63103.000			-24.058			-4.812
63205.000			-24.057			-4.811
63304.000			-24.057			-4.811
63404.000			-24.055			-4.811
63505.000			-24.055			-4.811
63604.000			-24.056			-4.811
63705.000			-24.054			-4.811
63803.000			-24.053			-4.811
63904.000			-24.051			-4.810
64005.000			-24.050			-4.810
64104.000			-24.049			-4.810
64204.000			-24.049			-4.810
64305.000			-24.050			-4.810
64404.000			-24.050			-4.810
64503.000			-24.049			-4.810
64605.000			-24.048			-4.810
64704.000			-24.047			-4.809
64804.000			-24.047			-4.809
64905.000			-24.046			-4.809
65004.000			-24.045			-4.809
65104.000			-24.045			-4.809
65204.000			-24.045			-4.809
65304.000			-24.044			-4.809
65404.000			-24.044			-4.809
65505.000			-24.043			-4.809
65604.000			-24.041			-4.808
65703.000			-24.041			-4.808
65805.000			-24.041			-4.808
65904.000			-24.039			-4.808
66004.000			-24.037			-4.807
66105.000			-24.038			-4.808
66204.000			-24.038			-4.808
66304.000			-24.036			-4.807
66404.000			-24.034			-4.807
66504.000			-24.034			-4.807
66604.000			-24.035			-4.807
66704.000			-24.034			-4.807
66804.000			-24.032			-4.806
66905.000			-24.032			-4.806
67004.000			-24.031			-4.806
67103.000			-24.030			-4.806
67205.000			-24.028			-4.806
67304.000			-24.028			-4.806
67404.000			-24.027			-4.805
67505.000			-24.027			-4.805
67604.000			-24.027			-4.805
67704.000			-24.026			-4.805
67804.000			-24.024			-4.805
67904.000			-24.024			-4.805
68004.000			-24.023			-4.805
68105.000			-24.022			-4.804
68204.000			-24.022			-4.804
68304.000			-24.022			-4.804
68405.000			-24.021			-4.804
68503.000			-24.021			-4.804
68604.000			-24.020			-4.804
68705.000			-24.019			-4.804
