# Acquired on 09/01/2024 15:15:52 
# SPIDER: Creep_-8mm_07714532C-1
# CREEP MEASUREMENT

# time [ms]		force [N]		stiffness [N/mm]
1.000			13.368			-1.671
101.000			14.356			-1.794
201.000			14.927			-1.866
300.000			14.854			-1.857
400.000			14.785			-1.848
501.000			14.732			-1.842
600.000			14.688			-1.836
700.000			14.650			-1.831
802.000			14.617			-1.827
900.000			14.559			-1.820
1000.000			14.535			-1.817
1100.000			14.514			-1.814
1200.000			14.493			-1.812
1301.000			14.473			-1.809
1400.000			14.455			-1.807
1501.000			14.436			-1.805
1602.000			14.406			-1.801
1700.000			14.391			-1.799
1800.000			14.377			-1.797
1901.000			14.364			-1.795
2000.000			14.352			-1.794
2100.000			14.340			-1.792
2201.000			14.328			-1.791
2301.000			14.317			-1.790
2401.000			14.295			-1.787
2501.000			14.284			-1.786
2600.000			14.275			-1.784
2700.000			14.266			-1.783
2801.000			14.258			-1.782
2900.000			14.248			-1.781
3001.000			14.240			-1.780
3102.000			14.224			-1.778
3200.000			14.215			-1.777
3300.000			14.208			-1.776
3401.000			14.200			-1.775
3500.000			14.193			-1.774
3600.000			14.187			-1.773
3701.000			14.179			-1.772
3801.000			14.166			-1.771
3901.000			14.160			-1.770
4001.000			14.154			-1.769
4100.000			14.148			-1.768
4200.000			14.141			-1.768
4300.000			14.136			-1.767
4400.000			14.129			-1.766
4502.000			14.116			-1.765
4601.000			14.111			-1.764
4700.000			14.107			-1.763
4801.000			14.102			-1.763
4900.000			14.096			-1.762
5000.000			14.090			-1.761
5101.000			14.086			-1.761
5201.000			14.078			-1.760
5301.000			14.072			-1.759
5401.000			14.066			-1.758
5500.000			14.062			-1.758
5600.000			14.058			-1.757
5701.000			14.053			-1.757
5800.000			14.049			-1.756
5900.000			14.044			-1.756
6002.000			14.036			-1.755
6101.000			14.032			-1.754
6200.000			14.027			-1.753
6301.000			14.023			-1.753
6400.000			14.018			-1.752
6500.000			14.014			-1.752
6601.000			14.011			-1.751
6701.000			14.004			-1.750
6801.000			14.001			-1.750
6901.000			13.996			-1.749
7000.000			13.991			-1.749
7100.000			13.989			-1.749
7201.000			13.985			-1.748
7300.000			13.981			-1.748
7400.000			13.975			-1.747
7502.000			13.972			-1.747
7601.000			13.969			-1.746
7701.000			13.965			-1.746
7800.000			13.962			-1.745
7900.000			13.958			-1.745
8001.000			13.954			-1.744
8100.000			13.948			-1.743
8200.000			13.945			-1.743
8302.000			13.943			-1.743
8401.000			13.940			-1.742
8500.000			13.936			-1.742
8601.000			13.934			-1.742
8700.000			13.931			-1.741
8800.000			13.928			-1.741
8901.000			13.921			-1.740
9000.000			13.919			-1.740
9101.000			13.917			-1.740
9202.000			13.913			-1.739
9300.000			13.911			-1.739
9400.000			13.908			-1.739
9501.000			13.906			-1.738
9600.000			13.899			-1.737
9700.000			13.897			-1.737
9802.000			13.895			-1.737
9901.000			13.891			-1.736
10001.000			13.888			-1.736
10101.000			13.886			-1.736
10200.000			13.884			-1.736
10300.000			13.879			-1.735
10401.000			13.875			-1.734
10500.000			13.874			-1.734
10602.000			13.871			-1.734
10701.000			13.869			-1.734
10801.000			13.867			-1.733
10901.000			13.864			-1.733
11000.000			13.859			-1.732
11100.000			13.857			-1.732
11201.000			13.854			-1.732
11300.000			13.852			-1.731
11401.000			13.850			-1.731
11502.000			13.848			-1.731
11601.000			13.846			-1.731
11700.000			13.844			-1.730
11801.000			13.839			-1.730
11900.000			13.838			-1.730
12000.000			13.835			-1.729
12101.000			13.832			-1.729
12201.000			13.830			-1.729
12301.000			13.828			-1.729
12401.000			13.826			-1.728
12500.000			13.822			-1.728
12600.000			13.819			-1.727
12701.000			13.818			-1.727
12800.000			13.815			-1.727
12900.000			13.813			-1.727
13002.000			13.812			-1.727
13101.000			13.810			-1.726
13200.000			13.806			-1.726
13301.000			13.804			-1.725
13400.000			13.803			-1.725
13500.000			13.801			-1.725
13601.000			13.798			-1.725
13700.000			13.796			-1.725
13802.000			13.795			-1.724
13901.000			13.792			-1.724
14000.000			13.789			-1.724
14101.000			13.787			-1.723
14200.000			13.786			-1.723
14300.000			13.784			-1.723
14401.000			13.782			-1.723
14500.000			13.779			-1.722
14601.000			13.777			-1.722
14702.000			13.774			-1.722
14801.000			13.773			-1.722
14900.000			13.772			-1.721
15001.000			13.770			-1.721
15100.000			13.768			-1.721
15200.000			13.766			-1.721
15301.000			13.764			-1.721
15401.000			13.759			-1.720
15501.000			13.758			-1.720
15602.000			13.757			-1.720
15700.000			13.755			-1.719
15800.000			13.755			-1.719
15901.000			13.753			-1.719
16000.000			13.751			-1.719
16100.000			13.748			-1.718
16201.000			13.746			-1.718
16301.000			13.744			-1.718
16401.000			13.743			-1.718
16501.000			13.742			-1.718
16600.000			13.739			-1.717
16700.000			13.738			-1.717
16801.000			13.736			-1.717
16900.000			13.735			-1.717
17000.000			13.732			-1.717
17102.000			13.731			-1.716
17201.000			13.729			-1.716
17301.000			13.727			-1.716
17400.000			13.725			-1.716
17500.000			13.725			-1.716
17601.000			13.722			-1.715
17700.000			13.720			-1.715
17800.000			13.718			-1.715
17902.000			13.718			-1.715
18001.000			13.717			-1.715
18100.000			13.715			-1.714
18201.000			13.714			-1.714
18300.000			13.710			-1.714
18400.000			13.709			-1.714
18501.000			13.708			-1.714
18600.000			13.706			-1.713
18701.000			13.704			-1.713
18802.000			13.704			-1.713
18900.000			13.703			-1.713
19000.000			13.699			-1.712
19101.000			13.696			-1.712
19200.000			13.695			-1.712
19300.000			13.695			-1.712
19401.000			13.694			-1.712
19501.000			13.693			-1.712
19601.000			13.691			-1.711
19701.000			13.688			-1.711
19800.000			13.686			-1.711
19900.000			13.685			-1.711
20001.000			13.684			-1.711
20100.000			13.683			-1.710
20200.000			13.681			-1.710
20302.000			13.681			-1.710
20401.000			13.678			-1.710
20501.000			13.677			-1.710
20600.000			13.675			-1.709
20700.000			13.674			-1.709
20801.000			13.673			-1.709
20900.000			13.672			-1.709
21000.000			13.670			-1.709
21102.000			13.669			-1.709
21201.000			13.666			-1.708
21300.000			13.665			-1.708
21401.000			13.663			-1.708
21500.000			13.662			-1.708
21600.000			13.661			-1.708
21701.000			13.660			-1.708
21800.000			13.659			-1.707
21901.000			13.656			-1.707
22002.000			13.655			-1.707
22100.000			13.654			-1.707
22200.000			13.654			-1.707
22301.000			13.652			-1.707
22400.000			13.651			-1.706
22500.000			13.650			-1.706
22601.000			13.647			-1.706
22701.000			13.647			-1.706
22801.000			13.645			-1.706
22901.000			13.644			-1.706
23000.000			13.644			-1.705
23100.000			13.643			-1.705
23201.000			13.641			-1.705
23300.000			13.640			-1.705
23400.000			13.636			-1.705
23502.000			13.636			-1.704
23601.000			13.635			-1.704
23701.000			13.632			-1.704
23800.000			13.631			-1.704
23900.000			13.631			-1.704
24001.000			13.630			-1.704
24100.000			13.628			-1.704
24200.000			13.627			-1.703
24302.000			13.626			-1.703
24401.000			13.624			-1.703
24500.000			13.622			-1.703
24601.000			13.622			-1.703
24700.000			13.622			-1.703
24800.000			13.619			-1.702
24901.000			13.619			-1.702
25000.000			13.618			-1.702
25101.000			13.617			-1.702
25202.000			13.615			-1.702
25300.000			13.614			-1.702
25400.000			13.613			-1.702
25501.000			13.611			-1.701
25600.000			13.611			-1.701
25700.000			13.609			-1.701
25802.000			13.607			-1.701
25901.000			13.607			-1.701
26000.000			13.606			-1.701
26101.000			13.605			-1.701
26200.000			13.602			-1.700
26300.000			13.602			-1.700
26401.000			13.600			-1.700
26500.000			13.600			-1.700
26602.000			13.600			-1.700
26701.000			13.598			-1.700
26801.000			13.597			-1.700
26901.000			13.596			-1.700
27000.000			13.594			-1.699
27100.000			13.593			-1.699
27201.000			13.592			-1.699
27300.000			13.592			-1.699
27400.000			13.590			-1.699
27502.000			13.588			-1.699
27601.000			13.587			-1.698
27700.000			13.587			-1.698
27801.000			13.586			-1.698
27900.000			13.584			-1.698
28000.000			13.583			-1.698
28101.000			13.582			-1.698
28200.000			13.581			-1.698
28301.000			13.580			-1.697
28402.000			13.580			-1.697
28500.000			13.579			-1.697
28600.000			13.577			-1.697
28701.000			13.575			-1.697
28800.000			13.575			-1.697
28900.000			13.574			-1.697
29001.000			13.573			-1.697
29101.000			13.572			-1.697
29201.000			13.571			-1.696
29301.000			13.569			-1.696
29400.000			13.569			-1.696
29500.000			13.568			-1.696
29601.000			13.566			-1.696
29700.000			13.566			-1.696
29800.000			13.565			-1.696
29902.000			13.564			-1.695
30001.000			13.563			-1.695
30101.000			13.561			-1.695
30200.000			13.561			-1.695
30300.000			13.561			-1.695
30401.000			13.560			-1.695
30500.000			13.559			-1.695
30600.000			13.556			-1.695
30702.000			13.555			-1.694
30801.000			13.555			-1.694
30900.000			13.554			-1.694
31001.000			13.553			-1.694
31100.000			13.552			-1.694
31200.000			13.551			-1.694
31301.000			13.549			-1.694
31400.000			13.549			-1.694
31501.000			13.548			-1.694
31602.000			13.547			-1.693
31700.000			13.546			-1.693
31800.000			13.545			-1.693
31901.000			13.544			-1.693
32000.000			13.544			-1.693
32100.000			13.542			-1.693
32202.000			13.542			-1.693
32301.000			13.541			-1.693
32400.000			13.540			-1.693
32501.000			13.538			-1.692
32600.000			13.537			-1.692
32700.000			13.537			-1.692
32801.000			13.536			-1.692
32900.000			13.535			-1.692
33002.000			13.534			-1.692
33101.000			13.534			-1.692
33200.000			13.534			-1.692
33301.000			13.533			-1.692
33400.000			13.532			-1.691
33500.000			13.530			-1.691
33601.000			13.529			-1.691
33700.000			13.528			-1.691
33801.000			13.527			-1.691
33902.000			13.526			-1.691
34000.000			13.526			-1.691
34100.000			13.526			-1.691
34201.000			13.524			-1.691
34300.000			13.523			-1.690
34400.000			13.522			-1.690
34501.000			13.520			-1.690
34601.000			13.520			-1.690
34701.000			13.519			-1.690
34801.000			13.519			-1.690
34900.000			13.517			-1.690
35000.000			13.517			-1.690
35101.000			13.517			-1.690
35200.000			13.515			-1.689
35301.000			13.514			-1.689
35402.000			13.513			-1.689
35500.000			13.513			-1.689
35600.000			13.512			-1.689
35701.000			13.511			-1.689
35800.000			13.510			-1.689
35900.000			13.509			-1.689
36001.000			13.509			-1.689
36101.000			13.509			-1.689
36202.000			13.507			-1.688
36301.000			13.507			-1.688
36400.000			13.505			-1.688
36501.000			13.504			-1.688
36600.000			13.504			-1.688
36700.000			13.503			-1.688
36801.000			13.503			-1.688
36901.000			13.502			-1.688
37001.000			13.500			-1.688
37101.000			13.499			-1.687
37200.000			13.498			-1.687
37300.000			13.497			-1.687
37401.000			13.497			-1.687
37500.000			13.497			-1.687
37600.000			13.496			-1.687
37702.000			13.495			-1.687
37801.000			13.493			-1.687
37900.000			13.492			-1.686
38001.000			13.491			-1.686
38100.000			13.491			-1.686
38200.000			13.491			-1.686
38301.000			13.490			-1.686
38400.000			13.489			-1.686
38501.000			13.489			-1.686
38602.000			13.487			-1.686
38701.000			13.486			-1.686
38800.000			13.486			-1.686
38901.000			13.484			-1.686
39000.000			13.484			-1.685
39100.000			13.483			-1.685
39201.000			13.483			-1.685
39301.000			13.483			-1.685
39402.000			13.482			-1.685
39501.000			13.481			-1.685
39600.000			13.480			-1.685
39701.000			13.479			-1.685
39800.000			13.479			-1.685
39900.000			13.478			-1.685
40001.000			13.477			-1.685
40100.000			13.476			-1.685
40201.000			13.475			-1.684
40302.000			13.474			-1.684
40400.000			13.473			-1.684
40500.000			13.473			-1.684
40601.000			13.472			-1.684
40700.000			13.470			-1.684
40800.000			13.470			-1.684
40902.000			13.470			-1.684
41001.000			13.468			-1.683
41101.000			13.467			-1.683
41201.000			13.468			-1.683
41300.000			13.467			-1.683
41400.000			13.467			-1.683
41501.000			13.466			-1.683
41600.000			13.464			-1.683
41700.000			13.464			-1.683
41802.000			13.464			-1.683
41901.000			13.463			-1.683
42000.000			13.462			-1.683
42101.000			13.461			-1.683
42200.000			13.462			-1.683
42300.000			13.460			-1.683
42401.000			13.460			-1.682
42501.000			13.459			-1.682
42602.000			13.458			-1.682
42701.000			13.457			-1.682
42800.000			13.457			-1.682
42901.000			13.455			-1.682
43000.000			13.454			-1.682
43100.000			13.454			-1.682
43201.000			13.453			-1.682
43301.000			13.453			-1.682
43401.000			13.453			-1.682
43501.000			13.452			-1.682
43600.000			13.450			-1.681
43700.000			13.450			-1.681
43801.000			13.449			-1.681
43900.000			13.449			-1.681
44000.000			13.449			-1.681
44102.000			13.448			-1.681
44201.000			13.447			-1.681
44300.000			13.446			-1.681
44401.000			13.445			-1.681
44500.000			13.445			-1.681
44600.000			13.444			-1.681
44701.000			13.444			-1.681
44800.000			13.444			-1.680
44901.000			13.444			-1.680
45002.000			13.442			-1.680
45100.000			13.441			-1.680
45200.000			13.440			-1.680
45301.000			13.439			-1.680
45400.000			13.438			-1.680
45500.000			13.437			-1.680
45601.000			13.437			-1.680
45701.000			13.438			-1.680
45802.000			13.436			-1.679
45901.000			13.436			-1.679
46000.000			13.435			-1.679
46101.000			13.435			-1.679
46200.000			13.434			-1.679
46300.000			13.432			-1.679
46401.000			13.431			-1.679
46501.000			13.431			-1.679
46601.000			13.430			-1.679
46701.000			13.429			-1.679
46800.000			13.429			-1.679
46900.000			13.429			-1.679
47001.000			13.428			-1.679
47100.000			13.427			-1.678
47200.000			13.427			-1.678
47302.000			13.426			-1.678
47401.000			13.425			-1.678
47500.000			13.424			-1.678
47601.000			13.424			-1.678
47700.000			13.423			-1.678
47800.000			13.423			-1.678
47901.000			13.423			-1.678
48000.000			13.422			-1.678
48101.000			13.421			-1.678
48202.000			13.421			-1.678
48300.000			13.421			-1.678
48400.000			13.420			-1.677
48501.000			13.418			-1.677
48600.000			13.418			-1.677
48700.000			13.417			-1.677
48801.000			13.417			-1.677
48901.000			13.416			-1.677
49002.000			13.416			-1.677
49100.000			13.416			-1.677
49200.000			13.415			-1.677
49301.000			13.414			-1.677
49400.000			13.413			-1.677
49500.000			13.413			-1.677
49601.000			13.412			-1.676
49701.000			13.412			-1.676
49801.000			13.411			-1.676
49901.000			13.410			-1.676
50000.000			13.411			-1.676
50100.000			13.410			-1.676
50201.000			13.409			-1.676
50300.000			13.407			-1.676
50400.000			13.407			-1.676
50502.000			13.407			-1.676
50601.000			13.406			-1.676
50700.000			13.405			-1.676
50801.000			13.405			-1.676
50900.000			13.405			-1.676
51000.000			13.404			-1.676
51101.000			13.403			-1.675
51200.000			13.403			-1.675
51301.000			13.402			-1.675
51401.000			13.402			-1.675
51500.000			13.402			-1.675
51600.000			13.400			-1.675
51701.000			13.400			-1.675
51800.000			13.399			-1.675
51900.000			13.398			-1.675
52002.000			13.398			-1.675
52101.000			13.397			-1.675
52200.000			13.396			-1.674
52300.000			13.396			-1.675
52400.000			13.396			-1.674
52501.000			13.395			-1.674
52600.000			13.394			-1.674
52700.000			13.394			-1.674
52802.000			13.393			-1.674
52901.000			13.392			-1.674
53000.000			13.392			-1.674
53101.000			13.391			-1.674
53200.000			13.391			-1.674
53300.000			13.389			-1.674
53401.000			13.389			-1.674
53500.000			13.389			-1.674
53601.000			13.389			-1.674
53702.000			13.388			-1.674
53800.000			13.387			-1.673
53900.000			13.387			-1.673
54001.000			13.386			-1.673
54100.000			13.386			-1.673
54200.000			13.385			-1.673
54301.000			13.385			-1.673
54401.000			13.385			-1.673
54501.000			13.383			-1.673
54601.000			13.382			-1.673
54700.000			13.382			-1.673
54800.000			13.382			-1.673
54901.000			13.381			-1.673
55000.000			13.380			-1.673
55100.000			13.380			-1.672
55202.000			13.380			-1.672
55301.000			13.380			-1.672
55400.000			13.379			-1.672
55500.000			13.378			-1.672
55600.000			13.377			-1.672
55701.000			13.377			-1.672
55800.000			13.377			-1.672
55900.000			13.376			-1.672
56002.000			13.375			-1.672
56101.000			13.374			-1.672
56200.000			13.374			-1.672
56301.000			13.372			-1.672
56400.000			13.372			-1.671
56500.000			13.373			-1.672
56601.000			13.372			-1.672
56700.000			13.371			-1.671
56801.000			13.371			-1.671
56902.000			13.372			-1.671
57000.000			13.371			-1.671
57100.000			13.369			-1.671
57201.000			13.368			-1.671
57300.000			13.368			-1.671
57400.000			13.367			-1.671
57501.000			13.368			-1.671
57601.000			13.366			-1.671
57701.000			13.366			-1.671
57801.000			13.366			-1.671
57900.000			13.364			-1.671
58000.000			13.364			-1.671
58101.000			13.363			-1.670
58200.000			13.363			-1.670
58300.000			13.363			-1.670
58402.000			13.362			-1.670
58501.000			13.362			-1.670
58600.000			13.361			-1.670
58700.000			13.361			-1.670
58800.000			13.360			-1.670
58901.000			13.360			-1.670
59000.000			13.360			-1.670
59100.000			13.359			-1.670
59201.000			13.358			-1.670
59301.000			13.358			-1.670
59401.000			13.357			-1.670
59501.000			13.357			-1.670
59600.000			13.355			-1.669
59700.000			13.356			-1.669
59801.000			13.355			-1.669
59900.000			13.354			-1.669
60000.000			13.354			-1.669
60102.000			13.354			-1.669
60201.000			13.354			-1.669
60300.000			13.351			-1.669
60401.000			13.352			-1.669
60500.000			13.352			-1.669
60600.000			13.351			-1.669
60701.000			13.349			-1.669
60800.000			13.350			-1.669
60901.000			13.350			-1.669
61002.000			13.349			-1.669
61100.000			13.349			-1.669
61200.000			13.349			-1.669
61301.000			13.348			-1.669
61400.000			13.347			-1.668
61500.000			13.346			-1.668
61602.000			13.346			-1.668
61701.000			13.345			-1.668
61802.000			13.344			-1.668
61900.000			13.345			-1.668
62000.000			13.344			-1.668
62101.000			13.342			-1.668
62200.000			13.343			-1.668
62300.000			13.343			-1.668
62402.000			13.342			-1.668
62501.000			13.342			-1.668
62600.000			13.341			-1.668
62701.000			13.341			-1.668
62800.000			13.341			-1.668
62900.000			13.339			-1.667
63001.000			13.338			-1.667
63100.000			13.338			-1.667
63201.000			13.338			-1.667
63302.000			13.337			-1.667
63401.000			13.337			-1.667
63500.000			13.337			-1.667
63601.000			13.336			-1.667
63700.000			13.336			-1.667
63800.000			13.336			-1.667
63901.000			13.335			-1.667
64001.000			13.335			-1.667
64101.000			13.335			-1.667
64201.000			13.334			-1.667
64300.000			13.334			-1.667
64400.000			13.333			-1.667
64501.000			13.331			-1.666
64600.000			13.331			-1.666
64700.000			13.331			-1.666
64802.000			13.330			-1.666
64901.000			13.330			-1.666
65000.000			13.329			-1.666
65100.000			13.330			-1.666
65200.000			13.330			-1.666
65301.000			13.330			-1.666
65400.000			13.327			-1.666
65500.000			13.327			-1.666
65602.000			13.327			-1.666
65701.000			13.327			-1.666
65800.000			13.326			-1.666
65901.000			13.326			-1.666
66000.000			13.324			-1.666
66100.000			13.324			-1.665
66201.000			13.325			-1.666
66300.000			13.325			-1.666
66401.000			13.324			-1.665
66502.000			13.323			-1.665
66600.000			13.323			-1.665
66700.000			13.322			-1.665
66801.000			13.321			-1.665
66900.000			13.320			-1.665
67000.000			13.321			-1.665
67101.000			13.319			-1.665
67201.000			13.317			-1.665
67301.000			13.317			-1.665
67401.000			13.318			-1.665
67500.000			13.318			-1.665
67600.000			13.317			-1.665
67701.000			13.316			-1.665
67800.000			13.317			-1.665
67900.000			13.317			-1.665
68002.000			13.316			-1.664
68101.000			13.315			-1.664
68200.000			13.314			-1.664
68300.000			13.315			-1.664
68400.000			13.313			-1.664
68501.000			13.313			-1.664
68600.000			13.313			-1.664
68700.000			13.312			-1.664
68802.000			13.313			-1.664
68901.000			13.313			-1.664
69000.000			13.311			-1.664
69101.000			13.310			-1.664
69200.000			13.310			-1.664
69300.000			13.310			-1.664
69401.000			13.309			-1.664
69500.000			13.308			-1.663
69601.000			13.308			-1.663
69702.000			13.308			-1.663
69800.000			13.307			-1.663
69900.000			13.306			-1.663
70001.000			13.307			-1.663
70100.000			13.307			-1.663
70200.000			13.306			-1.663
70301.000			13.306			-1.663
70401.000			13.304			-1.663
70501.000			13.304			-1.663
70601.000			13.304			-1.663
70700.000			13.303			-1.663
70800.000			13.303			-1.663
70901.000			13.303			-1.663
71000.000			13.303			-1.663
71101.000			13.302			-1.663
71202.000			13.302			-1.663
