# Acquired on 09/01/2024 15:26:42 
# SPIDER: Creep_-8mm_07714532C-2
# CREEP MEASUREMENT

# time [ms]		force [N]		stiffness [N/mm]
1.000			18.112			-2.264
100.000			18.963			-2.370
201.000			19.268			-2.409
300.000			19.243			-2.405
400.000			19.166			-2.396
501.000			19.108			-2.389
601.000			19.017			-2.377
701.000			18.982			-2.373
801.000			18.949			-2.369
900.000			18.920			-2.365
1000.000			18.894			-2.362
1101.000			18.868			-2.359
1200.000			18.845			-2.356
1300.000			18.825			-2.353
1402.000			18.786			-2.348
1501.000			18.768			-2.346
1600.000			18.752			-2.344
1701.000			18.736			-2.342
1800.000			18.720			-2.340
1900.000			18.706			-2.338
2001.000			18.692			-2.336
2100.000			18.666			-2.333
2201.000			18.654			-2.332
2302.000			18.641			-2.330
2400.000			18.629			-2.329
2500.000			18.617			-2.327
2600.000			18.607			-2.326
2700.000			18.597			-2.325
2801.000			18.577			-2.322
2900.000			18.567			-2.321
3001.000			18.558			-2.320
3102.000			18.550			-2.319
3200.000			18.541			-2.318
3300.000			18.532			-2.317
3401.000			18.524			-2.315
3500.000			18.507			-2.313
3600.000			18.500			-2.312
3701.000			18.492			-2.312
3801.000			18.484			-2.311
3901.000			18.477			-2.310
4001.000			18.472			-2.309
4100.000			18.465			-2.308
4200.000			18.457			-2.307
4301.000			18.443			-2.305
4400.000			18.436			-2.304
4501.000			18.430			-2.304
4602.000			18.425			-2.303
4700.000			18.419			-2.302
4800.000			18.414			-2.302
4901.000			18.408			-2.301
5000.000			18.395			-2.299
5100.000			18.390			-2.299
5201.000			18.383			-2.298
5301.000			18.378			-2.297
5401.000			18.374			-2.297
5501.000			18.369			-2.296
5600.000			18.364			-2.295
5700.000			18.353			-2.294
5800.000			18.347			-2.293
5900.000			18.344			-2.293
6001.000			18.340			-2.292
6101.000			18.334			-2.292
6201.000			18.329			-2.291
6301.000			18.325			-2.291
6400.000			18.316			-2.289
6500.000			18.311			-2.289
6601.000			18.308			-2.288
6700.000			18.304			-2.288
6800.000			18.299			-2.287
6902.000			18.295			-2.287
7001.000			18.290			-2.286
7100.000			18.285			-2.286
7201.000			18.278			-2.285
7300.000			18.275			-2.284
7400.000			18.270			-2.284
7501.000			18.266			-2.283
7601.000			18.263			-2.283
7701.000			18.259			-2.282
7802.000			18.254			-2.282
7900.000			18.247			-2.281
8000.000			18.244			-2.280
8101.000			18.241			-2.280
8200.000			18.238			-2.280
8300.000			18.234			-2.279
8402.000			18.229			-2.279
8501.000			18.225			-2.278
8600.000			18.219			-2.277
8701.000			18.216			-2.277
8800.000			18.214			-2.277
8900.000			18.210			-2.276
9000.000			18.206			-2.276
9100.000			18.203			-2.275
9202.000			18.201			-2.275
9301.000			18.194			-2.274
9400.000			18.191			-2.274
9501.000			18.188			-2.274
9600.000			18.185			-2.273
9700.000			18.181			-2.273
9801.000			18.178			-2.272
9900.000			18.176			-2.272
10001.000			18.173			-2.272
10102.000			18.168			-2.271
10200.000			18.164			-2.271
10300.000			18.161			-2.270
10401.000			18.159			-2.270
10500.000			18.156			-2.269
10600.000			18.153			-2.269
10701.000			18.151			-2.269
10801.000			18.146			-2.268
10901.000			18.142			-2.268
11001.000			18.139			-2.267
11100.000			18.136			-2.267
11200.000			18.134			-2.267
11301.000			18.132			-2.266
11400.000			18.129			-2.266
11501.000			18.124			-2.266
11602.000			18.121			-2.265
11700.000			18.120			-2.265
11800.000			18.117			-2.265
11901.000			18.114			-2.264
12000.000			18.112			-2.264
12100.000			18.109			-2.264
12200.000			18.105			-2.263
12301.000			18.102			-2.263
12402.000			18.100			-2.263
12500.000			18.098			-2.262
12600.000			18.094			-2.262
12701.000			18.092			-2.262
12800.000			18.091			-2.261
12900.000			18.088			-2.261
13001.000			18.084			-2.260
13101.000			18.082			-2.260
13201.000			18.079			-2.260
13301.000			18.077			-2.260
13400.000			18.075			-2.259
13500.000			18.073			-2.259
13601.000			18.071			-2.259
13700.000			18.065			-2.258
13800.000			18.065			-2.258
13902.000			18.063			-2.258
14001.000			18.060			-2.257
14100.000			18.057			-2.257
14201.000			18.055			-2.257
14300.000			18.053			-2.257
14400.000			18.049			-2.256
14501.000			18.047			-2.256
14600.000			18.045			-2.256
14701.000			18.043			-2.255
14802.000			18.041			-2.255
14900.000			18.038			-2.255
15000.000			18.037			-2.255
15101.000			18.032			-2.254
15200.000			18.031			-2.254
15300.000			18.029			-2.254
15400.000			18.028			-2.254
15501.000			18.026			-2.253
15602.000			18.024			-2.253
15700.000			18.021			-2.253
15800.000			18.020			-2.253
15901.000			18.017			-2.252
16000.000			18.014			-2.252
16100.000			18.013			-2.252
16201.000			18.011			-2.251
16301.000			18.009			-2.251
16401.000			18.007			-2.251
16501.000			18.006			-2.251
16600.000			18.001			-2.250
16700.000			18.000			-2.250
16801.000			17.998			-2.250
16900.000			17.995			-2.249
17000.000			17.994			-2.249
17102.000			17.994			-2.249
17201.000			17.991			-2.249
17300.000			17.989			-2.249
17401.000			17.986			-2.248
17500.000			17.984			-2.248
17600.000			17.983			-2.248
17701.000			17.980			-2.247
17800.000			17.978			-2.247
17901.000			17.977			-2.247
18002.000			17.974			-2.247
18100.000			17.972			-2.247
18200.000			17.971			-2.246
18301.000			17.969			-2.246
18400.000			17.968			-2.246
18500.000			17.966			-2.246
18600.000			17.964			-2.245
18700.000			17.963			-2.245
18802.000			17.960			-2.245
18901.000			17.958			-2.245
19000.000			17.956			-2.245
19101.000			17.955			-2.244
19200.000			17.953			-2.244
19300.000			17.952			-2.244
19401.000			17.951			-2.244
19500.000			17.947			-2.243
19601.000			17.946			-2.243
19702.000			17.944			-2.243
19800.000			17.942			-2.243
19900.000			17.941			-2.243
20001.000			17.940			-2.242
20100.000			17.939			-2.242
20200.000			17.937			-2.242
20301.000			17.935			-2.242
20401.000			17.933			-2.242
20501.000			17.931			-2.241
20601.000			17.930			-2.241
20700.000			17.928			-2.241
20800.000			17.927			-2.241
20901.000			17.923			-2.240
21000.000			17.922			-2.240
21100.000			17.921			-2.240
21202.000			17.920			-2.240
21301.000			17.919			-2.240
21400.000			17.918			-2.240
21501.000			17.916			-2.240
21600.000			17.914			-2.239
21700.000			17.910			-2.239
21800.000			17.910			-2.239
21900.000			17.909			-2.239
22002.000			17.908			-2.239
22101.000			17.907			-2.238
22201.000			17.905			-2.238
22301.000			17.903			-2.238
22400.000			17.901			-2.238
22500.000			17.899			-2.237
22601.000			17.897			-2.237
22700.000			17.896			-2.237
22801.000			17.895			-2.237
22902.000			17.893			-2.237
23001.000			17.892			-2.237
23100.000			17.890			-2.236
23201.000			17.889			-2.236
23300.000			17.888			-2.236
23400.000			17.886			-2.236
23501.000			17.884			-2.236
23600.000			17.883			-2.235
23701.000			17.882			-2.235
23802.000			17.879			-2.235
23900.000			17.878			-2.235
24000.000			17.877			-2.235
24101.000			17.876			-2.234
24200.000			17.875			-2.234
24300.000			17.874			-2.234
24401.000			17.872			-2.234
24501.000			17.872			-2.234
24601.000			17.868			-2.234
24701.000			17.868			-2.234
24800.000			17.867			-2.233
24900.000			17.865			-2.233
25000.000			17.864			-2.233
25100.000			17.863			-2.233
25201.000			17.862			-2.233
25301.000			17.860			-2.232
25401.000			17.858			-2.232
25501.000			17.857			-2.232
25600.000			17.854			-2.232
25700.000			17.854			-2.232
25801.000			17.853			-2.232
25900.000			17.851			-2.231
26000.000			17.849			-2.231
26101.000			17.848			-2.231
26201.000			17.847			-2.231
26301.000			17.846			-2.231
26401.000			17.844			-2.231
26500.000			17.843			-2.230
26600.000			17.844			-2.230
26701.000			17.841			-2.230
26800.000			17.840			-2.230
26900.000			17.839			-2.230
27002.000			17.838			-2.230
27101.000			17.836			-2.230
27200.000			17.835			-2.229
27301.000			17.833			-2.229
27400.000			17.832			-2.229
27500.000			17.830			-2.229
27601.000			17.830			-2.229
27700.000			17.828			-2.229
27801.000			17.827			-2.228
27902.000			17.826			-2.228
28000.000			17.825			-2.228
28100.000			17.823			-2.228
28200.000			17.822			-2.228
28300.000			17.821			-2.228
28401.000			17.819			-2.227
28500.000			17.818			-2.227
28601.000			17.818			-2.227
28702.000			17.817			-2.227
28801.000			17.815			-2.227
28900.000			17.814			-2.227
29001.000			17.813			-2.227
29100.000			17.812			-2.227
29200.000			17.811			-2.226
29301.000			17.809			-2.226
29401.000			17.808			-2.226
29501.000			17.808			-2.226
29602.000			17.805			-2.226
29700.000			17.805			-2.226
29800.000			17.804			-2.225
29901.000			17.803			-2.225
30000.000			17.801			-2.225
30100.000			17.800			-2.225
30201.000			17.799			-2.225
30301.000			17.798			-2.225
30401.000			17.797			-2.225
30501.000			17.795			-2.224
30600.000			17.795			-2.224
30700.000			17.794			-2.224
30801.000			17.793			-2.224
30900.000			17.791			-2.224
31000.000			17.790			-2.224
31102.000			17.789			-2.224
31201.000			17.789			-2.224
31300.000			17.787			-2.223
31400.000			17.785			-2.223
31500.000			17.784			-2.223
31601.000			17.783			-2.223
31700.000			17.783			-2.223
31800.000			17.780			-2.222
31902.000			17.779			-2.222
32001.000			17.778			-2.222
32100.000			17.777			-2.222
32201.000			17.777			-2.222
32300.000			17.776			-2.222
32400.000			17.775			-2.222
32501.000			17.773			-2.222
32600.000			17.773			-2.222
32701.000			17.772			-2.221
32802.000			17.770			-2.221
32900.000			17.770			-2.221
33000.000			17.768			-2.221
33101.000			17.767			-2.221
33200.000			17.765			-2.221
33300.000			17.765			-2.221
33401.000			17.764			-2.220
33501.000			17.763			-2.220
33601.000			17.762			-2.220
33701.000			17.762			-2.220
33800.000			17.761			-2.220
33900.000			17.759			-2.220
34001.000			17.759			-2.220
34100.000			17.758			-2.220
34200.000			17.756			-2.220
34302.000			17.755			-2.219
34401.000			17.756			-2.219
34502.000			17.754			-2.219
34600.000			17.752			-2.219
34700.000			17.750			-2.219
34801.000			17.750			-2.219
34900.000			17.750			-2.219
35000.000			17.749			-2.219
35101.000			17.748			-2.218
35201.000			17.747			-2.218
35301.000			17.745			-2.218
35401.000			17.745			-2.218
35500.000			17.743			-2.218
35600.000			17.743			-2.218
35701.000			17.742			-2.218
35800.000			17.741			-2.218
35900.000			17.739			-2.217
36002.000			17.739			-2.217
36101.000			17.737			-2.217
36200.000			17.737			-2.217
36301.000			17.737			-2.217
36400.000			17.735			-2.217
36500.000			17.734			-2.217
36601.000			17.733			-2.217
36700.000			17.732			-2.217
36801.000			17.732			-2.217
36902.000			17.730			-2.216
37000.000			17.729			-2.216
37100.000			17.728			-2.216
37201.000			17.727			-2.216
37300.000			17.727			-2.216
37400.000			17.725			-2.216
37501.000			17.724			-2.215
37601.000			17.722			-2.215
37702.000			17.722			-2.215
37800.000			17.721			-2.215
37900.000			17.720			-2.215
38001.000			17.719			-2.215
38100.000			17.719			-2.215
38200.000			17.718			-2.215
38301.000			17.716			-2.215
38401.000			17.716			-2.214
38501.000			17.715			-2.214
38601.000			17.714			-2.214
38700.000			17.713			-2.214
38800.000			17.712			-2.214
38901.000			17.711			-2.214
39000.000			17.710			-2.214
39100.000			17.710			-2.214
39202.000			17.709			-2.214
39301.000			17.708			-2.214
39401.000			17.708			-2.213
39501.000			17.706			-2.213
39600.000			17.705			-2.213
39700.000			17.705			-2.213
39801.000			17.703			-2.213
39900.000			17.702			-2.213
40000.000			17.702			-2.213
40102.000			17.701			-2.213
40201.000			17.701			-2.213
40300.000			17.700			-2.212
40401.000			17.698			-2.212
40500.000			17.697			-2.212
40600.000			17.698			-2.212
40701.000			17.696			-2.212
40800.000			17.696			-2.212
40902.000			17.696			-2.212
41001.000			17.695			-2.212
41100.000			17.693			-2.212
41201.000			17.692			-2.211
41300.000			17.691			-2.211
41400.000			17.689			-2.211
41501.000			17.689			-2.211
41600.000			17.689			-2.211
41701.000			17.688			-2.211
41802.000			17.687			-2.211
41900.000			17.685			-2.211
42000.000			17.685			-2.211
42101.000			17.685			-2.211
42200.000			17.684			-2.210
42300.000			17.683			-2.210
42401.000			17.683			-2.210
42501.000			17.682			-2.210
42601.000			17.680			-2.210
42701.000			17.680			-2.210
42800.000			17.678			-2.210
42900.000			17.677			-2.210
43001.000			17.676			-2.210
43100.000			17.676			-2.209
43200.000			17.676			-2.209
43301.000			17.675			-2.209
43401.000			17.673			-2.209
43501.000			17.673			-2.209
43601.000			17.674			-2.209
43700.000			17.671			-2.209
43800.000			17.670			-2.209
43901.000			17.669			-2.209
44000.000			17.669			-2.209
44100.000			17.668			-2.209
44202.000			17.667			-2.208
44301.000			17.666			-2.208
44401.000			17.665			-2.208
44500.000			17.664			-2.208
44600.000			17.664			-2.208
44701.000			17.664			-2.208
44800.000			17.662			-2.208
44900.000			17.661			-2.208
45002.000			17.661			-2.208
45101.000			17.660			-2.207
45200.000			17.659			-2.207
45301.000			17.658			-2.207
45400.000			17.658			-2.207
45500.000			17.658			-2.207
45601.000			17.657			-2.207
45700.000			17.656			-2.207
45801.000			17.654			-2.207
45902.000			17.654			-2.207
46000.000			17.652			-2.206
46100.000			17.652			-2.206
46201.000			17.652			-2.206
46300.000			17.650			-2.206
46400.000			17.651			-2.206
46501.000			17.650			-2.206
46601.000			17.649			-2.206
46701.000			17.648			-2.206
46801.000			17.647			-2.206
46900.000			17.647			-2.206
47000.000			17.645			-2.206
47101.000			17.645			-2.206
47200.000			17.645			-2.206
47300.000			17.644			-2.206
47400.000			17.643			-2.205
47501.000			17.643			-2.205
47602.000			17.642			-2.205
47700.000			17.640			-2.205
47800.000			17.639			-2.205
47901.000			17.638			-2.205
48000.000			17.638			-2.205
48100.000			17.638			-2.205
48201.000			17.637			-2.205
48301.000			17.637			-2.205
48401.000			17.636			-2.204
48501.000			17.636			-2.204
48600.000			17.634			-2.204
48700.000			17.633			-2.204
48801.000			17.631			-2.204
48900.000			17.631			-2.204
49000.000			17.630			-2.204
49102.000			17.630			-2.204
49201.000			17.630			-2.204
49300.000			17.630			-2.204
49401.000			17.628			-2.204
49500.000			17.628			-2.203
49600.000			17.626			-2.203
49701.000			17.626			-2.203
49800.000			17.626			-2.203
49901.000			17.625			-2.203
50002.000			17.625			-2.203
50101.000			17.624			-2.203
50200.000			17.623			-2.203
50301.000			17.622			-2.203
50400.000			17.622			-2.203
50500.000			17.621			-2.203
50600.000			17.620			-2.203
50701.000			17.619			-2.202
50802.000			17.619			-2.202
50901.000			17.618			-2.202
51000.000			17.617			-2.202
51101.000			17.617			-2.202
51200.000			17.616			-2.202
51300.000			17.615			-2.202
51401.000			17.614			-2.202
51501.000			17.614			-2.202
51601.000			17.614			-2.202
51701.000			17.613			-2.202
51800.000			17.612			-2.202
51900.000			17.612			-2.201
52001.000			17.609			-2.201
52100.000			17.609			-2.201
52200.000			17.607			-2.201
52302.000			17.607			-2.201
52401.000			17.607			-2.201
52500.000			17.607			-2.201
52601.000			17.606			-2.201
52700.000			17.606			-2.201
52800.000			17.605			-2.201
52901.000			17.605			-2.201
53000.000			17.604			-2.200
53101.000			17.603			-2.200
53202.000			17.603			-2.200
53300.000			17.602			-2.200
53400.000			17.601			-2.200
53501.000			17.601			-2.200
53600.000			17.600			-2.200
53700.000			17.598			-2.200
53800.000			17.598			-2.200
53901.000			17.599			-2.200
54002.000			17.597			-2.200
54100.000			17.596			-2.200
54200.000			17.596			-2.199
54301.000			17.594			-2.199
54400.000			17.595			-2.199
54500.000			17.594			-2.199
54601.000			17.593			-2.199
54701.000			17.593			-2.199
54801.000			17.592			-2.199
54901.000			17.592			-2.199
55000.000			17.590			-2.199
55100.000			17.590			-2.199
55201.000			17.590			-2.199
55300.000			17.589			-2.199
55400.000			17.588			-2.199
55502.000			17.588			-2.198
55601.000			17.587			-2.198
55700.000			17.586			-2.198
55801.000			17.586			-2.198
55900.000			17.585			-2.198
56000.000			17.584			-2.198
56101.000			17.584			-2.198
56200.000			17.584			-2.198
56300.000			17.583			-2.198
56402.000			17.582			-2.198
56501.000			17.581			-2.198
56600.000			17.581			-2.198
56701.000			17.581			-2.198
56800.000			17.581			-2.198
56900.000			17.579			-2.197
57000.000			17.578			-2.197
57100.000			17.578			-2.197
57202.000			17.576			-2.197
57301.000			17.577			-2.197
57400.000			17.576			-2.197
57501.000			17.576			-2.197
57600.000			17.576			-2.197
57700.000			17.576			-2.197
57801.000			17.574			-2.197
57900.000			17.573			-2.197
58001.000			17.572			-2.197
58102.000			17.573			-2.197
58200.000			17.572			-2.196
58300.000			17.571			-2.196
58401.000			17.571			-2.196
58500.000			17.570			-2.196
58600.000			17.569			-2.196
58701.000			17.567			-2.196
58801.000			17.568			-2.196
58901.000			17.568			-2.196
59002.000			17.566			-2.196
59100.000			17.566			-2.196
59200.000			17.565			-2.196
59301.000			17.564			-2.195
59400.000			17.564			-2.196
59500.000			17.564			-2.195
59601.000			17.563			-2.195
59701.000			17.563			-2.195
59801.000			17.562			-2.195
59901.000			17.562			-2.195
60000.000			17.561			-2.195
60100.000			17.560			-2.195
60200.000			17.560			-2.195
60300.000			17.558			-2.195
60401.000			17.558			-2.195
60501.000			17.558			-2.195
60601.000			17.558			-2.195
60701.000			17.557			-2.195
60800.000			17.557			-2.195
60900.000			17.556			-2.194
61001.000			17.555			-2.194
61100.000			17.554			-2.194
61200.000			17.554			-2.194
61302.000			17.554			-2.194
61401.000			17.553			-2.194
61500.000			17.552			-2.194
61601.000			17.552			-2.194
61700.000			17.551			-2.194
61800.000			17.551			-2.194
61901.000			17.551			-2.194
62000.000			17.550			-2.194
62101.000			17.550			-2.194
62202.000			17.549			-2.194
62300.000			17.547			-2.193
62400.000			17.547			-2.193
62501.000			17.547			-2.193
62600.000			17.546			-2.193
62700.000			17.545			-2.193
62801.000			17.545			-2.193
62901.000			17.545			-2.193
63001.000			17.544			-2.193
63102.000			17.543			-2.193
63200.000			17.543			-2.193
63300.000			17.542			-2.193
63400.000			17.540			-2.193
63500.000			17.541			-2.193
63601.000			17.542			-2.193
63700.000			17.539			-2.192
63801.000			17.539			-2.192
63902.000			17.538			-2.192
64000.000			17.537			-2.192
64100.000			17.537			-2.192
64201.000			17.537			-2.192
64300.000			17.536			-2.192
64400.000			17.537			-2.192
64501.000			17.536			-2.192
64601.000			17.535			-2.192
64701.000			17.535			-2.192
64801.000			17.534			-2.192
64900.000			17.533			-2.192
65000.000			17.532			-2.191
65101.000			17.532			-2.191
65200.000			17.532			-2.192
65300.000			17.531			-2.191
65402.000			17.530			-2.191
65501.000			17.529			-2.191
65600.000			17.528			-2.191
65701.000			17.528			-2.191
65800.000			17.528			-2.191
65900.000			17.529			-2.191
66001.000			17.527			-2.191
66100.000			17.527			-2.191
66201.000			17.527			-2.191
66302.000			17.526			-2.191
66400.000			17.525			-2.191
66500.000			17.526			-2.191
66600.000			17.524			-2.191
66700.000			17.523			-2.190
66801.000			17.523			-2.190
66900.000			17.522			-2.190
67001.000			17.522			-2.190
67102.000			17.521			-2.190
67201.000			17.521			-2.190
67300.000			17.520			-2.190
67401.000			17.520			-2.190
67500.000			17.519			-2.190
67600.000			17.518			-2.190
67701.000			17.518			-2.190
67800.000			17.518			-2.190
67901.000			17.517			-2.190
68002.000			17.517			-2.190
68100.000			17.516			-2.189
68200.000			17.515			-2.189
68301.000			17.515			-2.189
68400.000			17.515			-2.189
68500.000			17.514			-2.189
68601.000			17.513			-2.189
68701.000			17.512			-2.189
68801.000			17.513			-2.189
68901.000			17.513			-2.189
69000.000			17.512			-2.189
69100.000			17.511			-2.189
69201.000			17.510			-2.189
69300.000			17.510			-2.189
69400.000			17.510			-2.189
69502.000			17.510			-2.189
69601.000			17.509			-2.189
69700.000			17.508			-2.188
69800.000			17.507			-2.188
69900.000			17.507			-2.188
70001.000			17.507			-2.188
70100.000			17.505			-2.188
70200.000			17.505			-2.188
70302.000			17.504			-2.188
70401.000			17.504			-2.188
70501.000			17.503			-2.188
70601.000			17.503			-2.188
70700.000			17.503			-2.188
70800.000			17.502			-2.188
70901.000			17.503			-2.188
71000.000			17.501			-2.188
71101.000			17.499			-2.187
71202.000			17.499			-2.187
