# Acquired on 30/01/2024 10:09:16 
# SPIDER: Creep_11mm_GRPCNT1454A-2
# CREEP MEASUREMENT

# time [ms]		force [N]		stiffness [N/mm]
1.000			-49.001			-4.455
104.000			-49.614			-4.510
204.000			-49.498			-4.500
304.000			-49.034			-4.458
404.000			-48.329			-4.394
505.000			-48.071			-4.370
604.000			-47.846			-4.350
704.000			-47.648			-4.332
805.000			-47.472			-4.316
903.000			-47.313			-4.301
1004.000			-47.165			-4.288
1105.000			-47.030			-4.275
1204.000			-46.792			-4.254
1304.000			-46.684			-4.244
1404.000			-46.583			-4.235
1504.000			-46.487			-4.226
1604.000			-46.396			-4.218
1704.000			-46.312			-4.210
1804.000			-46.231			-4.203
1905.000			-46.080			-4.189
2004.000			-46.009			-4.183
2103.000			-45.941			-4.176
2205.000			-45.876			-4.171
2304.000			-45.814			-4.165
2404.000			-45.754			-4.159
2505.000			-45.697			-4.154
2604.000			-45.587			-4.144
2704.000			-45.535			-4.140
2804.000			-45.485			-4.135
2904.000			-45.435			-4.130
3004.000			-45.387			-4.126
3105.000			-45.341			-4.122
3204.000			-45.297			-4.118
3303.000			-45.252			-4.114
3405.000			-45.169			-4.106
3504.000			-45.128			-4.103
3604.000			-45.089			-4.099
3705.000			-45.051			-4.096
3804.000			-45.014			-4.092
3904.000			-44.979			-4.089
4004.000			-44.942			-4.086
4104.000			-44.873			-4.079
4204.000			-44.839			-4.076
4305.000			-44.807			-4.073
4404.000			-44.775			-4.070
4504.000			-44.744			-4.068
4605.000			-44.713			-4.065
4703.000			-44.683			-4.062
4804.000			-44.624			-4.057
4905.000			-44.597			-4.054
5004.000			-44.569			-4.052
5105.000			-44.542			-4.049
5203.000			-44.515			-4.047
5304.000			-44.488			-4.044
5405.000			-44.462			-4.042
5504.000			-44.412			-4.037
5604.000			-44.387			-4.035
5705.000			-44.363			-4.033
5804.000			-44.339			-4.031
5903.000			-44.315			-4.029
6005.000			-44.292			-4.027
6104.000			-44.269			-4.024
6204.000			-44.247			-4.022
6305.000			-44.203			-4.018
6404.000			-44.181			-4.016
6504.000			-44.160			-4.015
6604.000			-44.138			-4.013
6704.000			-44.118			-4.011
6804.000			-44.098			-4.009
6905.000			-44.079			-4.007
7004.000			-44.038			-4.003
7103.000			-44.018			-4.002
7205.000			-43.999			-4.000
7304.000			-43.981			-3.998
7404.000			-43.962			-3.997
7505.000			-43.943			-3.995
7604.000			-43.926			-3.993
7704.000			-43.890			-3.990
7804.000			-43.873			-3.988
7904.000			-43.857			-3.987
8004.000			-43.840			-3.985
8104.000			-43.822			-3.984
8204.000			-43.805			-3.982
8305.000			-43.788			-3.981
8404.000			-43.756			-3.978
8503.000			-43.741			-3.976
8605.000			-43.724			-3.975
8704.000			-43.708			-3.973
8804.000			-43.692			-3.972
8905.000			-43.676			-3.971
9003.000			-43.661			-3.969
9104.000			-43.648			-3.968
9205.000			-43.618			-3.965
9304.000			-43.603			-3.964
9404.000			-43.588			-3.963
9505.000			-43.574			-3.961
9604.000			-43.560			-3.960
9703.000			-43.547			-3.959
9805.000			-43.532			-3.957
9904.000			-43.505			-3.955
10004.000			-43.491			-3.954
10105.000			-43.478			-3.953
10204.000			-43.465			-3.951
10304.000			-43.452			-3.950
10404.000			-43.440			-3.949
10504.000			-43.426			-3.948
10604.000			-43.399			-3.945
10705.000			-43.387			-3.944
10804.000			-43.373			-3.943
10903.000			-43.362			-3.942
11005.000			-43.350			-3.941
11104.000			-43.337			-3.940
11204.000			-43.326			-3.939
11305.000			-43.301			-3.936
11404.000			-43.290			-3.935
11505.000			-43.278			-3.934
11603.000			-43.266			-3.933
11704.000			-43.255			-3.932
11805.000			-43.243			-3.931
11904.000			-43.232			-3.930
12004.000			-43.221			-3.929
12105.000			-43.199			-3.927
12204.000			-43.188			-3.926
12303.000			-43.176			-3.925
12405.000			-43.165			-3.924
12504.000			-43.155			-3.923
12604.000			-43.145			-3.922
12705.000			-43.134			-3.921
12804.000			-43.112			-3.919
12904.000			-43.102			-3.918
13004.000			-43.092			-3.917
13104.000			-43.082			-3.917
13204.000			-43.071			-3.916
13305.000			-43.062			-3.915
13404.000			-43.053			-3.914
13503.000			-43.034			-3.912
13605.000			-43.023			-3.911
13704.000			-43.012			-3.910
13804.000			-43.002			-3.909
13905.000			-42.992			-3.908
14004.000			-42.984			-3.908
14104.000			-42.974			-3.907
14204.000			-42.965			-3.906
14304.000			-42.946			-3.904
14404.000			-42.936			-3.903
14504.000			-42.927			-3.902
14604.000			-42.919			-3.902
14705.000			-42.910			-3.901
14804.000			-42.901			-3.900
14903.000			-42.890			-3.899
15005.000			-42.874			-3.898
15104.000			-42.865			-3.897
15204.000			-42.856			-3.896
15305.000			-42.847			-3.895
15404.000			-42.839			-3.894
15504.000			-42.831			-3.894
15604.000			-42.822			-3.893
15704.000			-42.805			-3.891
15804.000			-42.796			-3.891
15905.000			-42.787			-3.890
16004.000			-42.780			-3.889
16104.000			-42.772			-3.888
16205.000			-42.763			-3.888
16303.000			-42.755			-3.887
16404.000			-42.739			-3.885
16505.000			-42.730			-3.885
16604.000			-42.722			-3.884
16704.000			-42.715			-3.883
16805.000			-42.707			-3.882
16904.000			-42.699			-3.882
17003.000			-42.691			-3.881
17105.000			-42.683			-3.880
17204.000			-42.668			-3.879
17304.000			-42.660			-3.878
17405.000			-42.652			-3.877
17504.000			-42.645			-3.877
17604.000			-42.638			-3.876
17703.000			-42.630			-3.875
17804.000			-42.622			-3.875
17905.000			-42.608			-3.873
18004.000			-42.600			-3.873
18104.000			-42.594			-3.872
18204.000			-42.586			-3.871
18304.000			-42.578			-3.871
18403.000			-42.571			-3.870
18505.000			-42.564			-3.869
18604.000			-42.550			-3.868
18704.000			-42.544			-3.868
18805.000			-42.537			-3.867
18903.000			-42.530			-3.866
19004.000			-42.523			-3.866
19105.000			-42.515			-3.865
19204.000			-42.507			-3.864
19304.000			-42.494			-3.863
19405.000			-42.488			-3.863
19504.000			-42.481			-3.862
19603.000			-42.475			-3.861
19705.000			-42.468			-3.861
19804.000			-42.461			-3.860
19904.000			-42.455			-3.860
20005.000			-42.449			-3.859
20104.000			-42.434			-3.858
20204.000			-42.428			-3.857
20304.000			-42.422			-3.857
20404.000			-42.415			-3.856
20504.000			-42.409			-3.855
20605.000			-42.404			-3.855
20704.000			-42.396			-3.854
20804.000			-42.383			-3.853
20905.000			-42.377			-3.852
21003.000			-42.370			-3.852
21105.000			-42.364			-3.851
21204.000			-42.358			-3.851
21304.000			-42.352			-3.850
21405.000			-42.346			-3.850
21503.000			-42.333			-3.848
21604.000			-42.327			-3.848
21705.000			-42.322			-3.847
21804.000			-42.316			-3.847
21904.000			-42.310			-3.846
22005.000			-42.304			-3.846
22104.000			-42.298			-3.845
22203.000			-42.287			-3.844
22305.000			-42.281			-3.844
22404.000			-42.275			-3.843
22504.000			-42.268			-3.843
22605.000			-42.262			-3.842
22704.000			-42.257			-3.842
22804.000			-42.251			-3.841
22904.000			-42.245			-3.840
23004.000			-42.235			-3.840
23104.000			-42.229			-3.839
23205.000			-42.223			-3.838
23304.000			-42.217			-3.838
23403.000			-42.211			-3.837
23505.000			-42.205			-3.837
23604.000			-42.200			-3.836
23704.000			-42.189			-3.835
23805.000			-42.184			-3.835
23904.000			-42.178			-3.834
24004.000			-42.172			-3.834
24103.000			-42.167			-3.833
24204.000			-42.163			-3.833
24305.000			-42.157			-3.832
24404.000			-42.147			-3.832
24504.000			-42.142			-3.831
24605.000			-42.136			-3.831
24704.000			-42.131			-3.830
24803.000			-42.125			-3.830
24905.000			-42.120			-3.829
25004.000			-42.114			-3.829
25104.000			-42.109			-3.828
25205.000			-42.099			-3.827
25304.000			-42.095			-3.827
25404.000			-42.088			-3.826
25504.000			-42.083			-3.826
25604.000			-42.078			-3.825
25704.000			-42.073			-3.825
25805.000			-42.068			-3.824
25904.000			-42.059			-3.824
26003.000			-42.053			-3.823
26105.000			-42.048			-3.823
26204.000			-42.044			-3.822
26304.000			-42.038			-3.822
26405.000			-42.033			-3.821
26504.000			-42.028			-3.821
26604.000			-42.019			-3.820
26704.000			-42.014			-3.819
26804.000			-42.009			-3.819
26904.000			-42.004			-3.819
27005.000			-41.999			-3.818
27104.000			-41.994			-3.818
27204.000			-41.990			-3.817
27305.000			-41.980			-3.816
27403.000			-41.976			-3.816
27505.000			-41.971			-3.816
27604.000			-41.966			-3.815
27704.000			-41.961			-3.815
27805.000			-41.956			-3.814
27904.000			-41.951			-3.814
28004.000			-41.947			-3.813
28104.000			-41.938			-3.813
28204.000			-41.933			-3.812
28304.000			-41.929			-3.812
28405.000			-41.924			-3.811
28504.000			-41.919			-3.811
28604.000			-41.915			-3.810
28705.000			-41.911			-3.810
28803.000			-41.902			-3.809
28904.000			-41.897			-3.809
29005.000			-41.893			-3.808
29104.000			-41.888			-3.808
29204.000			-41.883			-3.808
29305.000			-41.878			-3.807
29404.000			-41.874			-3.807
29503.000			-41.867			-3.806
29605.000			-41.863			-3.806
29704.000			-41.858			-3.805
29804.000			-41.853			-3.805
29905.000			-41.850			-3.805
30004.000			-41.845			-3.804
30104.000			-41.840			-3.804
30204.000			-41.832			-3.803
30304.000			-41.827			-3.802
30404.000			-41.822			-3.802
30504.000			-41.819			-3.802
30604.000			-41.815			-3.801
30705.000			-41.810			-3.801
30804.000			-41.806			-3.801
30903.000			-41.802			-3.800
31005.000			-41.792			-3.799
31104.000			-41.789			-3.799
31204.000			-41.786			-3.799
31305.000			-41.781			-3.798
31404.000			-41.778			-3.798
31504.000			-41.774			-3.798
31604.000			-41.769			-3.797
31704.000			-41.761			-3.796
31804.000			-41.756			-3.796
31905.000			-41.752			-3.796
32004.000			-41.749			-3.795
32103.000			-41.743			-3.795
32205.000			-41.740			-3.795
32304.000			-41.737			-3.794
32404.000			-41.729			-3.794
32505.000			-41.726			-3.793
32604.000			-41.719			-3.793
32704.000			-41.716			-3.792
32804.000			-41.713			-3.792
32904.000			-41.708			-3.792
33004.000			-41.704			-3.791
33105.000			-41.697			-3.791
33204.000			-41.694			-3.790
33304.000			-41.690			-3.790
33405.000			-41.686			-3.790
33503.000			-41.682			-3.789
33604.000			-41.679			-3.789
33705.000			-41.674			-3.789
33804.000			-41.671			-3.788
33905.000			-41.664			-3.788
34004.000			-41.660			-3.787
34104.000			-41.655			-3.787
34204.000			-41.651			-3.786
34304.000			-41.647			-3.786
34404.000			-41.644			-3.786
34505.000			-41.640			-3.785
34604.000			-41.634			-3.785
34704.000			-41.630			-3.785
34805.000			-41.624			-3.784
34903.000			-41.620			-3.784
35004.000			-41.616			-3.783
35105.000			-41.614			-3.783
35204.000			-41.611			-3.783
35304.000			-41.603			-3.782
35404.000			-41.599			-3.782
35504.000			-41.596			-3.781
35604.000			-41.592			-3.781
35705.000			-41.589			-3.781
35804.000			-41.585			-3.780
35904.000			-41.582			-3.780
36005.000			-41.576			-3.780
36103.000			-41.571			-3.779
36204.000			-41.567			-3.779
36305.000			-41.564			-3.779
36404.000			-41.560			-3.778
36504.000			-41.557			-3.778
36605.000			-41.553			-3.778
36704.000			-41.549			-3.777
36803.000			-41.543			-3.777
36905.000			-41.539			-3.776
37004.000			-41.536			-3.776
37105.000			-41.533			-3.776
37204.000			-41.530			-3.775
37304.000			-41.526			-3.775
37405.000			-41.522			-3.775
37503.000			-41.515			-3.774
37604.000			-41.512			-3.774
37705.000			-41.507			-3.773
37804.000			-41.504			-3.773
37904.000			-41.502			-3.773
38005.000			-41.499			-3.773
38104.000			-41.495			-3.772
38203.000			-41.487			-3.772
38305.000			-41.485			-3.771
38404.000			-41.481			-3.771
38504.000			-41.478			-3.771
38605.000			-41.475			-3.770
38704.000			-41.472			-3.770
38804.000			-41.467			-3.770
38904.000			-41.461			-3.769
39004.000			-41.459			-3.769
39104.000			-41.455			-3.769
39205.000			-41.451			-3.768
39304.000			-41.448			-3.768
39404.000			-41.445			-3.768
39505.000			-41.441			-3.767
39604.000			-41.438			-3.767
39704.000			-41.431			-3.766
39805.000			-41.428			-3.766
39904.000			-41.425			-3.766
40004.000			-41.423			-3.766
40103.000			-41.419			-3.765
40204.000			-41.415			-3.765
40305.000			-41.412			-3.765
40404.000			-41.407			-3.764
40504.000			-41.403			-3.764
40605.000			-41.399			-3.764
40704.000			-41.397			-3.763
40803.000			-41.394			-3.763
40905.000			-41.392			-3.763
41004.000			-41.388			-3.763
41104.000			-41.381			-3.762
41205.000			-41.378			-3.762
41304.000			-41.375			-3.761
41404.000			-41.372			-3.761
41504.000			-41.369			-3.761
41604.000			-41.364			-3.760
41704.000			-41.361			-3.760
41805.000			-41.359			-3.760
41904.000			-41.353			-3.759
42003.000			-41.350			-3.759
42105.000			-41.346			-3.759
42204.000			-41.345			-3.759
42304.000			-41.342			-3.758
42405.000			-41.339			-3.758
42504.000			-41.335			-3.758
42604.000			-41.329			-3.757
42704.000			-41.326			-3.757
42804.000			-41.323			-3.757
42904.000			-41.321			-3.756
43005.000			-41.318			-3.756
43104.000			-41.315			-3.756
43204.000			-41.312			-3.756
43305.000			-41.305			-3.755
43403.000			-41.303			-3.755
43505.000			-41.300			-3.755
43604.000			-41.296			-3.754
43704.000			-41.294			-3.754
43805.000			-41.291			-3.754
43904.000			-41.288			-3.753
44004.000			-41.283			-3.753
44104.000			-41.279			-3.753
44204.000			-41.276			-3.752
44304.000			-41.273			-3.752
44405.000			-41.271			-3.752
44504.000			-41.268			-3.752
44603.000			-41.265			-3.751
44705.000			-41.262			-3.751
44804.000			-41.256			-3.751
44904.000			-41.253			-3.750
45005.000			-41.251			-3.750
45104.000			-41.248			-3.750
45204.000			-41.244			-3.749
45304.000			-41.240			-3.749
45404.000			-41.238			-3.749
45504.000			-41.233			-3.748
45605.000			-41.230			-3.748
45704.000			-41.228			-3.748
45804.000			-41.225			-3.748
45905.000			-41.222			-3.747
46003.000			-41.220			-3.747
46104.000			-41.217			-3.747
46205.000			-41.211			-3.746
46304.000			-41.209			-3.746
46404.000			-41.207			-3.746
46504.000			-41.203			-3.746
46604.000			-41.199			-3.745
46703.000			-41.197			-3.745
46804.000			-41.194			-3.745
46904.000			-41.189			-3.744
47005.000			-41.186			-3.744
47104.000			-41.183			-3.744
47203.000			-41.181			-3.744
47305.000			-41.178			-3.743
47404.000			-41.176			-3.743
47504.000			-41.174			-3.743
47605.000			-41.168			-3.743
47704.000			-41.165			-3.742
47804.000			-41.162			-3.742
47904.000			-41.160			-3.742
48004.000			-41.157			-3.742
48104.000			-41.153			-3.741
48205.000			-41.151			-3.741
48304.000			-41.148			-3.741
48404.000			-41.144			-3.740
48505.000			-41.141			-3.740
48603.000			-41.138			-3.740
48704.000			-41.135			-3.740
48805.000			-41.133			-3.739
48904.000			-41.131			-3.739
49004.000			-41.128			-3.739
49105.000			-41.122			-3.738
49204.000			-41.119			-3.738
49303.000			-41.117			-3.738
49405.000			-41.114			-3.738
49504.000			-41.112			-3.737
49604.000			-41.109			-3.737
49705.000			-41.107			-3.737
49804.000			-41.102			-3.737
49905.000			-41.099			-3.736
50003.000			-41.097			-3.736
50104.000			-41.095			-3.736
50205.000			-41.092			-3.736
50304.000			-41.090			-3.735
50404.000			-41.086			-3.735
50505.000			-41.084			-3.735
50604.000			-41.079			-3.734
50703.000			-41.077			-3.734
50805.000			-41.075			-3.734
50904.000			-41.072			-3.734
51004.000			-41.069			-3.734
51105.000			-41.067			-3.733
51203.000			-41.064			-3.733
51304.000			-41.060			-3.733
51405.000			-41.058			-3.733
51504.000			-41.055			-3.732
51604.000			-41.052			-3.732
51705.000			-41.049			-3.732
51804.000			-41.047			-3.732
51903.000			-41.046			-3.731
52005.000			-41.039			-3.731
52104.000			-41.037			-3.731
52204.000			-41.034			-3.730
52305.000			-41.032			-3.730
52404.000			-41.029			-3.730
52504.000			-41.028			-3.730
52604.000			-41.025			-3.730
52704.000			-41.020			-3.729
52804.000			-41.018			-3.729
52904.000			-41.016			-3.729
53004.000			-41.013			-3.728
53103.000			-41.011			-3.728
53204.000			-41.009			-3.728
53304.000			-41.006			-3.728
53405.000			-41.004			-3.728
53504.000			-40.998			-3.727
53604.000			-40.995			-3.727
53705.000			-40.994			-3.727
53803.000			-40.992			-3.727
53904.000			-40.990			-3.726
54005.000			-40.988			-3.726
54104.000			-40.985			-3.726
54204.000			-40.980			-3.725
54305.000			-40.977			-3.725
54404.000			-40.976			-3.725
54503.000			-40.973			-3.725
54605.000			-40.971			-3.725
54704.000			-40.969			-3.724
54804.000			-40.966			-3.724
54905.000			-40.961			-3.724
55004.000			-40.958			-3.723
55104.000			-40.956			-3.723
55204.000			-40.954			-3.723
55304.000			-40.952			-3.723
55404.000			-40.949			-3.723
55505.000			-40.946			-3.722
55604.000			-40.942			-3.722
55704.000			-40.941			-3.722
55805.000			-40.939			-3.722
55903.000			-40.937			-3.722
56004.000			-40.934			-3.721
56105.000			-40.932			-3.721
56204.000			-40.929			-3.721
56305.000			-40.927			-3.721
56404.000			-40.922			-3.720
56504.000			-40.920			-3.720
56604.000			-40.918			-3.720
56704.000			-40.916			-3.720
56804.000			-40.913			-3.719
56905.000			-40.911			-3.719
57004.000			-40.909			-3.719
57103.000			-40.905			-3.719
57205.000			-40.903			-3.718
57304.000			-40.901			-3.718
57404.000			-40.899			-3.718
57505.000			-40.896			-3.718
57604.000			-40.894			-3.718
57704.000			-40.892			-3.717
57804.000			-40.887			-3.717
57904.000			-40.885			-3.717
58003.000			-40.883			-3.717
58105.000			-40.881			-3.716
58204.000			-40.879			-3.716
58304.000			-40.877			-3.716
58405.000			-40.874			-3.716
58504.000			-40.869			-3.715
58604.000			-40.867			-3.715
58704.000			-40.865			-3.715
58804.000			-40.864			-3.715
58904.000			-40.861			-3.715
59005.000			-40.859			-3.714
59104.000			-40.857			-3.714
59204.000			-40.856			-3.714
59305.000			-40.851			-3.714
59403.000			-40.848			-3.713
59505.000			-40.846			-3.713
59604.000			-40.844			-3.713
59704.000			-40.842			-3.713
59805.000			-40.840			-3.713
59904.000			-40.837			-3.712
60004.000			-40.834			-3.712
60104.000			-40.831			-3.712
60204.000			-40.830			-3.712
60304.000			-40.828			-3.712
60405.000			-40.825			-3.711
60504.000			-40.823			-3.711
60603.000			-40.821			-3.711
60705.000			-40.817			-3.711
60804.000			-40.816			-3.711
60904.000			-40.813			-3.710
61005.000			-40.811			-3.710
61104.000			-40.809			-3.710
61204.000			-40.807			-3.710
61304.000			-40.804			-3.709
61404.000			-40.801			-3.709
61504.000			-40.799			-3.709
61605.000			-40.796			-3.709
61704.000			-40.794			-3.709
61804.000			-40.793			-3.708
61905.000			-40.790			-3.708
62003.000			-40.788			-3.708
62104.000			-40.786			-3.708
62205.000			-40.782			-3.707
62304.000			-40.780			-3.707
62404.000			-40.778			-3.707
62504.000			-40.776			-3.707
62604.000			-40.774			-3.707
62703.000			-40.772			-3.707
62804.000			-40.770			-3.706
62904.000			-40.766			-3.706
63005.000			-40.762			-3.706
63104.000			-40.760			-3.705
63204.000			-40.759			-3.705
63305.000			-40.757			-3.705
63403.000			-40.756			-3.705
63504.000			-40.754			-3.705
63605.000			-40.750			-3.705
63704.000			-40.748			-3.704
63804.000			-40.746			-3.704
63905.000			-40.744			-3.704
64004.000			-40.742			-3.704
64103.000			-40.739			-3.704
64205.000			-40.737			-3.703
64304.000			-40.735			-3.703
64404.000			-40.733			-3.703
64505.000			-40.731			-3.703
64604.000			-40.729			-3.703
64704.000			-40.725			-3.702
64804.000			-40.724			-3.702
64904.000			-40.722			-3.702
65004.000			-40.720			-3.702
65105.000			-40.717			-3.702
65204.000			-40.714			-3.701
65304.000			-40.712			-3.701
65405.000			-40.710			-3.701
65503.000			-40.709			-3.701
65604.000			-40.707			-3.701
65705.000			-40.705			-3.700
65804.000			-40.700			-3.700
65905.000			-40.699			-3.700
66004.000			-40.698			-3.700
66104.000			-40.695			-3.700
66204.000			-40.694			-3.699
66304.000			-40.692			-3.699
66404.000			-40.690			-3.699
66505.000			-40.686			-3.699
66604.000			-40.684			-3.699
66704.000			-40.681			-3.698
66805.000			-40.680			-3.698
66903.000			-40.678			-3.698
67004.000			-40.676			-3.698
67105.000			-40.676			-3.698
67204.000			-40.673			-3.698
67304.000			-40.669			-3.697
67405.000			-40.667			-3.697
67504.000			-40.665			-3.697
67603.000			-40.663			-3.697
67705.000			-40.662			-3.697
67804.000			-40.660			-3.696
67904.000			-40.658			-3.696
68005.000			-40.654			-3.696
68104.000			-40.653			-3.696
68204.000			-40.651			-3.696
68304.000			-40.650			-3.695
68404.000			-40.647			-3.695
68504.000			-40.644			-3.695
68605.000			-40.642			-3.695
68704.000			-40.638			-3.694
