# Acquired on 30/01/2024 11:44:08 
# SPIDER: Creep_11mm_HM077x145x38AB-1
# CREEP MEASUREMENT

# time [ms]		force [N]		stiffness [N/mm]
0.000			-33.018			-3.002
103.000			-33.435			-3.040
205.000			-33.512			-3.047
304.000			-33.417			-3.038
404.000			-33.233			-3.021
505.000			-33.166			-3.015
603.000			-33.107			-3.010
704.000			-33.054			-3.005
805.000			-33.009			-3.001
904.000			-32.967			-2.997
1004.000			-32.929			-2.994
1104.000			-32.859			-2.987
1204.000			-32.828			-2.984
1304.000			-32.798			-2.982
1405.000			-32.771			-2.979
1504.000			-32.744			-2.977
1604.000			-32.719			-2.974
1705.000			-32.695			-2.972
1803.000			-32.650			-2.968
1905.000			-32.630			-2.966
2004.000			-32.609			-2.964
2104.000			-32.589			-2.963
2205.000			-32.569			-2.961
2303.000			-32.551			-2.959
2404.000			-32.533			-2.958
2505.000			-32.500			-2.955
2604.000			-32.484			-2.953
2704.000			-32.468			-2.952
2805.000			-32.453			-2.950
2904.000			-32.439			-2.949
3003.000			-32.424			-2.948
3105.000			-32.409			-2.946
3204.000			-32.395			-2.945
3304.000			-32.368			-2.943
3405.000			-32.355			-2.941
3503.000			-32.344			-2.940
3604.000			-32.332			-2.939
3705.000			-32.320			-2.938
3804.000			-32.309			-2.937
3904.000			-32.297			-2.936
4005.000			-32.274			-2.934
4104.000			-32.265			-2.933
4203.000			-32.255			-2.932
4305.000			-32.244			-2.931
4404.000			-32.232			-2.930
4504.000			-32.223			-2.929
4605.000			-32.213			-2.928
4704.000			-32.194			-2.927
4804.000			-32.185			-2.926
4905.000			-32.176			-2.925
5004.000			-32.167			-2.924
5105.000			-32.158			-2.923
5204.000			-32.149			-2.923
5304.000			-32.141			-2.922
5404.000			-32.125			-2.920
5504.000			-32.117			-2.920
5604.000			-32.109			-2.919
5705.000			-32.101			-2.918
5804.000			-32.093			-2.918
5904.000			-32.085			-2.917
6005.000			-32.078			-2.916
6104.000			-32.070			-2.915
6204.000			-32.055			-2.914
6305.000			-32.048			-2.913
6404.000			-32.041			-2.913
6504.000			-32.034			-2.912
6604.000			-32.026			-2.911
6704.000			-32.019			-2.911
6804.000			-32.012			-2.910
6905.000			-32.000			-2.909
7004.000			-31.992			-2.908
7104.000			-31.986			-2.908
7205.000			-31.980			-2.907
7303.000			-31.973			-2.907
7404.000			-31.966			-2.906
7505.000			-31.960			-2.905
7604.000			-31.948			-2.904
7704.000			-31.943			-2.904
7804.000			-31.936			-2.903
7904.000			-31.929			-2.903
8004.000			-31.921			-2.902
8104.000			-31.914			-2.901
8204.000			-31.908			-2.901
8305.000			-31.897			-2.900
8404.000			-31.891			-2.899
8503.000			-31.886			-2.899
8605.000			-31.880			-2.898
8704.000			-31.874			-2.898
8804.000			-31.869			-2.897
8905.000			-31.864			-2.897
9004.000			-31.858			-2.896
9104.000			-31.847			-2.895
9204.000			-31.841			-2.895
9304.000			-31.836			-2.894
9404.000			-31.832			-2.894
9505.000			-31.826			-2.893
9604.000			-31.821			-2.893
9704.000			-31.816			-2.892
9805.000			-31.807			-2.892
9903.000			-31.802			-2.891
10004.000			-31.796			-2.891
10105.000			-31.790			-2.890
10204.000			-31.785			-2.890
10304.000			-31.781			-2.889
10404.000			-31.777			-2.889
10504.000			-31.768			-2.888
10604.000			-31.764			-2.888
10705.000			-31.759			-2.887
10804.000			-31.754			-2.887
10904.000			-31.749			-2.886
11005.000			-31.744			-2.886
11103.000			-31.741			-2.886
11204.000			-31.730			-2.885
11305.000			-31.727			-2.884
11404.000			-31.722			-2.884
11505.000			-31.719			-2.884
11604.000			-31.715			-2.883
11704.000			-31.709			-2.883
11804.000			-31.705			-2.882
11904.000			-31.702			-2.882
12004.000			-31.694			-2.881
12105.000			-31.690			-2.881
12204.000			-31.686			-2.881
12304.000			-31.681			-2.880
12405.000			-31.677			-2.880
12503.000			-31.673			-2.879
12604.000			-31.669			-2.879
12705.000			-31.662			-2.878
12804.000			-31.658			-2.878
12904.000			-31.655			-2.878
13004.000			-31.650			-2.877
13104.000			-31.646			-2.877
13204.000			-31.642			-2.877
13305.000			-31.639			-2.876
13404.000			-31.631			-2.876
13504.000			-31.628			-2.875
13605.000			-31.624			-2.875
13703.000			-31.620			-2.875
13804.000			-31.617			-2.874
13905.000			-31.613			-2.874
14004.000			-31.609			-2.874
14104.000			-31.603			-2.873
14205.000			-31.600			-2.873
14304.000			-31.596			-2.872
14403.000			-31.592			-2.872
14505.000			-31.588			-2.872
14604.000			-31.584			-2.871
14705.000			-31.581			-2.871
14804.000			-31.578			-2.871
14904.000			-31.572			-2.870
15005.000			-31.568			-2.870
15103.000			-31.565			-2.870
15204.000			-31.562			-2.869
15305.000			-31.559			-2.869
15404.000			-31.555			-2.869
15504.000			-31.550			-2.868
15604.000			-31.545			-2.868
15704.000			-31.542			-2.867
15804.000			-31.538			-2.867
15905.000			-31.535			-2.867
16004.000			-31.532			-2.867
16104.000			-31.529			-2.866
16205.000			-31.526			-2.866
16303.000			-31.520			-2.865
16404.000			-31.517			-2.865
16505.000			-31.514			-2.865
16604.000			-31.511			-2.865
16704.000			-31.506			-2.864
16805.000			-31.503			-2.864
16904.000			-31.502			-2.864
17003.000			-31.497			-2.863
17105.000			-31.494			-2.863
17204.000			-31.490			-2.863
17304.000			-31.487			-2.862
17405.000			-31.483			-2.862
17504.000			-31.480			-2.862
17604.000			-31.478			-2.862
17703.000			-31.475			-2.861
17804.000			-31.470			-2.861
17905.000			-31.466			-2.861
18004.000			-31.463			-2.860
18104.000			-31.461			-2.860
18205.000			-31.459			-2.860
18304.000			-31.457			-2.860
18403.000			-31.453			-2.859
18505.000			-31.448			-2.859
18604.000			-31.444			-2.859
18704.000			-31.441			-2.858
18805.000			-31.438			-2.858
18904.000			-31.436			-2.858
19004.000			-31.434			-2.858
19104.000			-31.432			-2.857
19204.000			-31.426			-2.857
19304.000			-31.423			-2.857
19405.000			-31.421			-2.856
19504.000			-31.417			-2.856
19603.000			-31.415			-2.856
19705.000			-31.413			-2.856
19804.000			-31.410			-2.855
19904.000			-31.405			-2.855
20005.000			-31.402			-2.855
20104.000			-31.399			-2.854
20204.000			-31.396			-2.854
20304.000			-31.394			-2.854
20404.000			-31.390			-2.854
20504.000			-31.389			-2.854
20605.000			-31.384			-2.853
20704.000			-31.381			-2.853
20804.000			-31.379			-2.853
20905.000			-31.376			-2.852
21003.000			-31.374			-2.852
21105.000			-31.372			-2.852
21204.000			-31.369			-2.852
21304.000			-31.366			-2.851
21405.000			-31.362			-2.851
21504.000			-31.359			-2.851
21604.000			-31.357			-2.851
21704.000			-31.356			-2.851
21804.000			-31.353			-2.850
21904.000			-31.350			-2.850
22005.000			-31.348			-2.850
22104.000			-31.342			-2.849
22203.000			-31.340			-2.849
22305.000			-31.338			-2.849
22404.000			-31.335			-2.849
22504.000			-31.332			-2.848
22605.000			-31.331			-2.848
22704.000			-31.329			-2.848
22804.000			-31.324			-2.848
22904.000			-31.322			-2.847
23004.000			-31.320			-2.847
23104.000			-31.318			-2.847
23205.000			-31.315			-2.847
23304.000			-31.313			-2.847
23404.000			-31.310			-2.846
23505.000			-31.306			-2.846
23604.000			-31.304			-2.846
23704.000			-31.302			-2.846
23805.000			-31.300			-2.845
23904.000			-31.297			-2.845
24004.000			-31.295			-2.845
24103.000			-31.294			-2.845
24204.000			-31.291			-2.845
24305.000			-31.287			-2.844
24404.000			-31.285			-2.844
24504.000			-31.282			-2.844
24605.000			-31.280			-2.844
24704.000			-31.278			-2.843
24803.000			-31.276			-2.843
24905.000			-31.273			-2.843
25004.000			-31.269			-2.843
25104.000			-31.267			-2.842
25205.000			-31.265			-2.842
25304.000			-31.262			-2.842
25404.000			-31.261			-2.842
25504.000			-31.260			-2.842
25604.000			-31.258			-2.842
25704.000			-31.253			-2.841
25805.000			-31.251			-2.841
25904.000			-31.249			-2.841
26004.000			-31.247			-2.841
26105.000			-31.244			-2.840
26203.000			-31.242			-2.840
26304.000			-31.241			-2.840
26405.000			-31.237			-2.840
26504.000			-31.234			-2.839
26604.000			-31.233			-2.839
26704.000			-31.232			-2.839
26804.000			-31.229			-2.839
26904.000			-31.227			-2.839
27005.000			-31.225			-2.839
27104.000			-31.223			-2.838
27204.000			-31.220			-2.838
27305.000			-31.217			-2.838
27403.000			-31.216			-2.838
27505.000			-31.214			-2.838
27604.000			-31.213			-2.838
27704.000			-31.210			-2.837
27805.000			-31.208			-2.837
27904.000			-31.205			-2.837
28004.000			-31.202			-2.837
28104.000			-31.199			-2.836
28204.000			-31.197			-2.836
28304.000			-31.196			-2.836
28405.000			-31.195			-2.836
28504.000			-31.193			-2.836
28604.000			-31.190			-2.835
28705.000			-31.187			-2.835
28803.000			-31.185			-2.835
28904.000			-31.183			-2.835
29005.000			-31.182			-2.835
29104.000			-31.180			-2.835
29204.000			-31.178			-2.834
29304.000			-31.174			-2.834
29404.000			-31.172			-2.834
29503.000			-31.171			-2.834
29605.000			-31.169			-2.834
29704.000			-31.168			-2.833
29804.000			-31.165			-2.833
29905.000			-31.162			-2.833
30003.000			-31.162			-2.833
30104.000			-31.159			-2.833
30205.000			-31.157			-2.832
30304.000			-31.154			-2.832
30404.000			-31.152			-2.832
30504.000			-31.152			-2.832
30604.000			-31.150			-2.832
30704.000			-31.148			-2.832
30804.000			-31.145			-2.831
30904.000			-31.144			-2.831
31005.000			-31.141			-2.831
31104.000			-31.139			-2.831
31203.000			-31.137			-2.831
31305.000			-31.135			-2.830
31404.000			-31.134			-2.830
31504.000			-31.131			-2.830
31605.000			-31.129			-2.830
31704.000			-31.128			-2.830
31804.000			-31.127			-2.830
31904.000			-31.124			-2.829
32004.000			-31.122			-2.829
32104.000			-31.120			-2.829
32205.000			-31.118			-2.829
32304.000			-31.116			-2.829
32404.000			-31.114			-2.829
32505.000			-31.112			-2.828
32603.000			-31.111			-2.828
32704.000			-31.110			-2.828
32805.000			-31.107			-2.828
32904.000			-31.105			-2.828
33004.000			-31.102			-2.827
33104.000			-31.101			-2.827
33204.000			-31.099			-2.827
33304.000			-31.097			-2.827
33405.000			-31.096			-2.827
33504.000			-31.094			-2.827
33604.000			-31.092			-2.827
33705.000			-31.089			-2.826
33803.000			-31.088			-2.826
33905.000			-31.086			-2.826
34004.000			-31.084			-2.826
34104.000			-31.083			-2.826
34205.000			-31.081			-2.826
34304.000			-31.080			-2.825
34404.000			-31.077			-2.825
34504.000			-31.075			-2.825
34604.000			-31.074			-2.825
34704.000			-31.072			-2.825
34805.000			-31.071			-2.825
34904.000			-31.070			-2.825
35003.000			-31.068			-2.824
35105.000			-31.065			-2.824
35204.000			-31.063			-2.824
35304.000			-31.062			-2.824
35405.000			-31.060			-2.824
35504.000			-31.059			-2.824
35604.000			-31.058			-2.823
35704.000			-31.057			-2.823
35804.000			-31.055			-2.823
35904.000			-31.052			-2.823
36005.000			-31.050			-2.823
36104.000			-31.048			-2.823
36204.000			-31.046			-2.822
36305.000			-31.045			-2.822
36403.000			-31.044			-2.822
36504.000			-31.043			-2.822
36605.000			-31.040			-2.822
36704.000			-31.038			-2.822
36804.000			-31.036			-2.821
36904.000			-31.035			-2.821
37004.000			-31.033			-2.821
37104.000			-31.032			-2.821
37204.000			-31.030			-2.821
37304.000			-31.027			-2.821
37405.000			-31.025			-2.820
37504.000			-31.024			-2.820
37603.000			-31.023			-2.820
37705.000			-31.021			-2.820
37804.000			-31.021			-2.820
37904.000			-31.020			-2.820
38005.000			-31.017			-2.820
38104.000			-31.016			-2.820
38204.000			-31.014			-2.819
38304.000			-31.013			-2.819
38404.000			-31.011			-2.819
38504.000			-31.009			-2.819
38605.000			-31.008			-2.819
38704.000			-31.006			-2.819
38804.000			-31.004			-2.819
38905.000			-31.003			-2.818
39004.000			-31.000			-2.818
39104.000			-30.999			-2.818
39205.000			-30.998			-2.818
39304.000			-30.996			-2.818
39404.000			-30.995			-2.818
39504.000			-30.992			-2.817
39604.000			-30.991			-2.817
39703.000			-30.990			-2.817
39805.000			-30.987			-2.817
39904.000			-30.985			-2.817
40004.000			-30.983			-2.817
40105.000			-30.983			-2.817
40204.000			-30.981			-2.816
40305.000			-30.979			-2.816
40403.000			-30.977			-2.816
40504.000			-30.977			-2.816
40605.000			-30.976			-2.816
40704.000			-30.974			-2.816
40804.000			-30.973			-2.816
40905.000			-30.969			-2.815
41004.000			-30.968			-2.815
41103.000			-30.967			-2.815
41205.000			-30.966			-2.815
41304.000			-30.965			-2.815
41404.000			-30.963			-2.815
41505.000			-30.962			-2.815
41603.000			-30.961			-2.815
41704.000			-30.958			-2.814
41805.000			-30.956			-2.814
41904.000			-30.955			-2.814
42004.000			-30.953			-2.814
42105.000			-30.952			-2.814
42204.000			-30.951			-2.814
42303.000			-30.950			-2.814
42405.000			-30.947			-2.813
42504.000			-30.946			-2.813
42604.000			-30.945			-2.813
42705.000			-30.944			-2.813
42804.000			-30.943			-2.813
42904.000			-30.941			-2.813
43004.000			-30.939			-2.813
43104.000			-30.938			-2.813
43204.000			-30.936			-2.812
43304.000			-30.934			-2.812
43404.000			-30.933			-2.812
43505.000			-30.932			-2.812
43604.000			-30.931			-2.812
43703.000			-30.929			-2.812
43805.000			-30.927			-2.812
43904.000			-30.926			-2.811
44004.000			-30.924			-2.811
44105.000			-30.924			-2.811
44204.000			-30.923			-2.811
44304.000			-30.921			-2.811
44404.000			-30.920			-2.811
44504.000			-30.918			-2.811
44604.000			-30.916			-2.811
44705.000			-30.914			-2.810
44804.000			-30.913			-2.810
44903.000			-30.912			-2.810
45005.000			-30.910			-2.810
45104.000			-30.909			-2.810
45204.000			-30.909			-2.810
45305.000			-30.906			-2.810
45404.000			-30.904			-2.809
45504.000			-30.904			-2.809
45604.000			-30.903			-2.809
45704.000			-30.901			-2.809
45804.000			-30.900			-2.809
45905.000			-30.899			-2.809
46004.000			-30.896			-2.809
46104.000			-30.894			-2.809
46205.000			-30.893			-2.808
46303.000			-30.892			-2.808
46404.000			-30.891			-2.808
46505.000			-30.891			-2.808
46604.000			-30.889			-2.808
46705.000			-30.886			-2.808
46804.000			-30.885			-2.808
46904.000			-30.885			-2.808
47004.000			-30.883			-2.808
47104.000			-30.880			-2.807
47204.000			-30.880			-2.807
47305.000			-30.879			-2.807
47404.000			-30.878			-2.807
47504.000			-30.876			-2.807
47605.000			-30.875			-2.807
47703.000			-30.874			-2.807
47804.000			-30.872			-2.807
47905.000			-30.870			-2.806
48004.000			-30.869			-2.806
48104.000			-30.868			-2.806
48205.000			-30.866			-2.806
48304.000			-30.865			-2.806
48403.000			-30.863			-2.806
48505.000			-30.863			-2.806
48604.000			-30.862			-2.806
48704.000			-30.859			-2.805
48805.000			-30.858			-2.805
48904.000			-30.858			-2.805
49004.000			-30.856			-2.805
49104.000			-30.855			-2.805
49204.000			-30.855			-2.805
49304.000			-30.853			-2.805
49405.000			-30.851			-2.805
49504.000			-30.851			-2.805
49604.000			-30.848			-2.804
49705.000			-30.848			-2.804
49803.000			-30.847			-2.804
49905.000			-30.845			-2.804
50004.000			-30.844			-2.804
50104.000			-30.842			-2.804
50205.000			-30.842			-2.804
50304.000			-30.842			-2.804
50404.000			-30.839			-2.804
50504.000			-30.837			-2.803
50604.000			-30.836			-2.803
50704.000			-30.835			-2.803
50805.000			-30.834			-2.803
50904.000			-30.834			-2.803
51004.000			-30.833			-2.803
51105.000			-30.830			-2.803
51203.000			-30.828			-2.803
51304.000			-30.826			-2.802
51405.000			-30.827			-2.802
51504.000			-30.826			-2.802
51604.000			-30.825			-2.802
51705.000			-30.823			-2.802
51804.000			-30.821			-2.802
51903.000			-30.820			-2.802
52005.000			-30.819			-2.802
52104.000			-30.817			-2.802
52204.000			-30.816			-2.801
52305.000			-30.815			-2.801
52404.000			-30.814			-2.801
52504.000			-30.812			-2.801
52604.000			-30.811			-2.801
52704.000			-30.811			-2.801
52804.000			-30.809			-2.801
52904.000			-30.808			-2.801
53004.000			-30.807			-2.801
53104.000			-30.807			-2.801
53204.000			-30.806			-2.801
53304.000			-30.802			-2.800
53405.000			-30.801			-2.800
53504.000			-30.800			-2.800
53604.000			-30.799			-2.800
53705.000			-30.799			-2.800
53803.000			-30.797			-2.800
53904.000			-30.796			-2.800
54005.000			-30.794			-2.799
54104.000			-30.794			-2.799
54204.000			-30.793			-2.799
54305.000			-30.792			-2.799
54404.000			-30.791			-2.799
54503.000			-30.790			-2.799
54605.000			-30.788			-2.799
54704.000			-30.786			-2.799
54804.000			-30.784			-2.799
54905.000			-30.784			-2.799
55004.000			-30.783			-2.798
55104.000			-30.782			-2.798
55204.000			-30.781			-2.798
55304.000			-30.779			-2.798
55404.000			-30.778			-2.798
55505.000			-30.777			-2.798
55604.000			-30.775			-2.798
55704.000			-30.775			-2.798
55805.000			-30.773			-2.798
55903.000			-30.773			-2.798
56004.000			-30.771			-2.797
56105.000			-30.770			-2.797
56204.000			-30.767			-2.797
56305.000			-30.766			-2.797
56404.000			-30.767			-2.797
56504.000			-30.766			-2.797
56604.000			-30.765			-2.797
56704.000			-30.764			-2.797
56804.000			-30.763			-2.797
56905.000			-30.761			-2.796
57004.000			-30.760			-2.796
57104.000			-30.759			-2.796
57205.000			-30.759			-2.796
57303.000			-30.757			-2.796
57404.000			-30.756			-2.796
57505.000			-30.754			-2.796
57604.000			-30.753			-2.796
57704.000			-30.752			-2.796
57805.000			-30.751			-2.796
57904.000			-30.749			-2.795
58003.000			-30.748			-2.795
58105.000			-30.747			-2.795
58204.000			-30.746			-2.795
58304.000			-30.745			-2.795
58405.000			-30.744			-2.795
58504.000			-30.743			-2.795
58604.000			-30.742			-2.795
58704.000			-30.741			-2.795
58804.000			-30.739			-2.794
58904.000			-30.738			-2.794
59005.000			-30.737			-2.794
59104.000			-30.736			-2.794
59203.000			-30.735			-2.794
59305.000			-30.735			-2.794
59404.000			-30.733			-2.794
59505.000			-30.732			-2.794
59604.000			-30.731			-2.794
59704.000			-30.731			-2.794
59805.000			-30.728			-2.793
59904.000			-30.727			-2.793
60004.000			-30.726			-2.793
60104.000			-30.726			-2.793
60204.000			-30.725			-2.793
60304.000			-30.724			-2.793
60405.000			-30.722			-2.793
60504.000			-30.722			-2.793
60603.000			-30.720			-2.793
60705.000			-30.718			-2.793
60804.000			-30.718			-2.793
60904.000			-30.716			-2.792
61005.000			-30.716			-2.792
61104.000			-30.716			-2.792
61204.000			-30.713			-2.792
61304.000			-30.712			-2.792
61404.000			-30.711			-2.792
61504.000			-30.710			-2.792
61605.000			-30.710			-2.792
61704.000			-30.709			-2.792
61804.000			-30.709			-2.792
61905.000			-30.708			-2.792
62003.000			-30.705			-2.791
62104.000			-30.705			-2.791
62205.000			-30.704			-2.791
62304.000			-30.703			-2.791
62404.000			-30.702			-2.791
62503.000			-30.700			-2.791
62604.000			-30.699			-2.791
62705.000			-30.698			-2.791
62804.000			-30.697			-2.791
62904.000			-30.697			-2.791
63005.000			-30.697			-2.791
63104.000			-30.695			-2.790
63203.000			-30.693			-2.790
63305.000			-30.692			-2.790
63404.000			-30.691			-2.790
63504.000			-30.690			-2.790
63605.000			-30.689			-2.790
63704.000			-30.689			-2.790
63804.000			-30.687			-2.790
63904.000			-30.687			-2.790
64004.000			-30.686			-2.790
64104.000			-30.683			-2.789
64205.000			-30.683			-2.789
64304.000			-30.682			-2.789
64404.000			-30.681			-2.789
64505.000			-30.681			-2.789
64603.000			-30.679			-2.789
64704.000			-30.678			-2.789
64805.000			-30.677			-2.789
64904.000			-30.676			-2.789
65004.000			-30.675			-2.789
65105.000			-30.674			-2.789
65204.000			-30.674			-2.789
65303.000			-30.673			-2.788
65405.000			-30.671			-2.788
65504.000			-30.671			-2.788
65604.000			-30.669			-2.788
65705.000			-30.668			-2.788
65804.000			-30.667			-2.788
65905.000			-30.667			-2.788
66003.000			-30.666			-2.788
66104.000			-30.664			-2.788
66205.000			-30.662			-2.787
66304.000			-30.662			-2.787
66404.000			-30.662			-2.787
66505.000			-30.662			-2.787
66604.000			-30.661			-2.787
66703.000			-30.659			-2.787
66805.000			-30.658			-2.787
66904.000			-30.657			-2.787
67004.000			-30.657			-2.787
67105.000			-30.656			-2.787
67204.000			-30.653			-2.787
67304.000			-30.652			-2.787
67404.000			-30.652			-2.787
67504.000			-30.651			-2.786
67604.000			-30.650			-2.786
67705.000			-30.649			-2.786
67804.000			-30.647			-2.786
67904.000			-30.646			-2.786
68005.000			-30.645			-2.786
68103.000			-30.644			-2.786
68204.000			-30.644			-2.786
68305.000			-30.642			-2.786
68404.000			-30.642			-2.786
68504.000			-30.641			-2.786
68605.000			-30.640			-2.785
68704.000			-30.640			-2.785
