# Acquired on 09/01/2024 11:04:36 
# SPIDER: Creep_-6mm_07714532B-1
# CREEP MEASUREMENT

# time [ms]		force [N]		stiffness [N/mm]
0.000			19.957			-3.326
102.000			20.961			-3.494
201.000			21.318			-3.553
300.000			21.313			-3.552
401.000			21.231			-3.538
500.000			21.163			-3.527
600.000			21.059			-3.510
701.000			21.019			-3.503
801.000			20.981			-3.497
901.000			20.949			-3.492
1001.000			20.919			-3.487
1100.000			20.891			-3.482
1200.000			20.865			-3.478
1300.000			20.841			-3.474
1400.000			20.798			-3.466
1501.000			20.778			-3.463
1601.000			20.759			-3.460
1701.000			20.744			-3.457
1801.000			20.727			-3.454
1900.000			20.711			-3.452
2000.000			20.696			-3.449
2101.000			20.668			-3.445
2200.000			20.655			-3.442
2301.000			20.642			-3.440
2402.000			20.630			-3.438
2500.000			20.617			-3.436
2600.000			20.606			-3.434
2701.000			20.595			-3.433
2800.000			20.574			-3.429
2900.000			20.563			-3.427
3001.000			20.553			-3.426
3101.000			20.544			-3.424
3201.000			20.536			-3.423
3301.000			20.526			-3.421
3400.000			20.517			-3.420
3500.000			20.501			-3.417
3601.000			20.494			-3.416
3700.000			20.486			-3.414
3801.000			20.478			-3.413
3902.000			20.471			-3.412
4000.000			20.464			-3.411
4100.000			20.457			-3.410
4201.000			20.450			-3.408
4300.000			20.436			-3.406
4400.000			20.429			-3.405
4500.000			20.423			-3.404
4601.000			20.416			-3.403
4702.000			20.411			-3.402
4800.000			20.406			-3.401
4900.000			20.401			-3.400
5001.000			20.388			-3.398
5100.000			20.383			-3.397
5200.000			20.377			-3.396
5302.000			20.372			-3.395
5401.000			20.367			-3.394
5500.000			20.361			-3.393
5601.000			20.356			-3.393
5700.000			20.347			-3.391
5800.000			20.342			-3.390
5901.000			20.337			-3.390
6000.000			20.332			-3.389
6101.000			20.328			-3.388
6202.000			20.323			-3.387
6300.000			20.319			-3.386
6400.000			20.310			-3.385
6501.000			20.306			-3.384
6600.000			20.301			-3.384
6700.000			20.296			-3.383
6802.000			20.292			-3.382
6901.000			20.289			-3.381
7000.000			20.285			-3.381
7101.000			20.280			-3.380
7200.000			20.273			-3.379
7300.000			20.269			-3.378
7401.000			20.266			-3.378
7501.000			20.262			-3.377
7602.000			20.258			-3.376
7701.000			20.254			-3.376
7800.000			20.250			-3.375
7901.000			20.246			-3.374
8000.000			20.241			-3.373
8100.000			20.237			-3.373
8201.000			20.234			-3.372
8301.000			20.230			-3.372
8401.000			20.226			-3.371
8501.000			20.223			-3.371
8600.000			20.216			-3.369
8700.000			20.213			-3.369
8801.000			20.211			-3.368
8900.000			20.208			-3.368
9001.000			20.203			-3.367
9102.000			20.200			-3.367
9200.000			20.198			-3.366
9300.000			20.195			-3.366
9401.000			20.191			-3.365
9500.000			20.186			-3.364
9600.000			20.183			-3.364
9701.000			20.180			-3.363
9801.000			20.177			-3.363
9901.000			20.174			-3.362
10001.000			20.173			-3.362
10100.000			20.167			-3.361
10200.000			20.164			-3.361
10301.000			20.162			-3.360
10400.000			20.159			-3.360
10501.000			20.156			-3.359
10602.000			20.153			-3.359
10700.000			20.151			-3.359
10800.000			20.147			-3.358
10900.000			20.144			-3.357
11000.000			20.141			-3.357
11101.000			20.139			-3.357
11200.000			20.136			-3.356
11301.000			20.133			-3.355
11402.000			20.132			-3.355
11500.000			20.126			-3.354
11600.000			20.125			-3.354
11701.000			20.123			-3.354
11800.000			20.120			-3.353
11900.000			20.117			-3.353
12001.000			20.115			-3.352
12101.000			20.113			-3.352
12201.000			20.110			-3.352
12301.000			20.106			-3.351
12400.000			20.104			-3.351
12500.000			20.102			-3.350
12601.000			20.099			-3.350
12700.000			20.096			-3.349
12801.000			20.095			-3.349
12902.000			20.094			-3.349
13000.000			20.088			-3.348
13100.000			20.087			-3.348
13201.000			20.085			-3.347
13300.000			20.083			-3.347
13400.000			20.080			-3.347
13501.000			20.078			-3.346
13601.000			20.075			-3.346
13701.000			20.072			-3.345
13801.000			20.070			-3.345
13900.000			20.069			-3.345
14000.000			20.066			-3.344
14100.000			20.064			-3.344
14200.000			20.063			-3.344
14302.000			20.061			-3.343
14401.000			20.058			-3.343
14501.000			20.056			-3.343
14601.000			20.054			-3.342
14700.000			20.052			-3.342
14800.000			20.050			-3.342
14901.000			20.048			-3.341
15000.000			20.046			-3.341
15101.000			20.044			-3.341
15202.000			20.040			-3.340
15300.000			20.038			-3.340
15400.000			20.037			-3.340
15501.000			20.036			-3.339
15600.000			20.034			-3.339
15700.000			20.032			-3.339
15801.000			20.030			-3.338
15901.000			20.028			-3.338
16001.000			20.027			-3.338
16101.000			20.024			-3.337
16200.000			20.022			-3.337
16300.000			20.021			-3.337
16401.000			20.018			-3.336
16500.000			20.016			-3.336
16601.000			20.013			-3.336
16702.000			20.012			-3.335
16800.000			20.010			-3.335
16900.000			20.009			-3.335
17001.000			20.007			-3.334
17100.000			20.005			-3.334
17200.000			20.004			-3.334
17300.000			20.002			-3.334
17401.000			20.000			-3.333
17502.000			19.998			-3.333
17600.000			19.996			-3.333
17700.000			19.995			-3.333
17801.000			19.994			-3.332
17900.000			19.992			-3.332
18000.000			19.990			-3.332
18101.000			19.987			-3.331
18200.000			19.985			-3.331
18301.000			19.983			-3.331
18402.000			19.983			-3.330
18500.000			19.983			-3.330
18600.000			19.980			-3.330
18701.000			19.979			-3.330
18800.000			19.975			-3.329
18900.000			19.974			-3.329
19001.000			19.974			-3.329
19101.000			19.972			-3.329
19201.000			19.969			-3.328
19301.000			19.969			-3.328
19400.000			19.967			-3.328
19500.000			19.965			-3.328
19601.000			19.963			-3.327
19700.000			19.962			-3.327
19800.000			19.960			-3.327
19901.000			19.959			-3.327
20001.000			19.958			-3.326
20101.000			19.957			-3.326
20201.000			19.955			-3.326
20300.000			19.953			-3.325
20400.000			19.951			-3.325
20500.000			19.949			-3.325
20600.000			19.949			-3.325
20701.000			19.949			-3.325
20801.000			19.946			-3.324
20901.000			19.944			-3.324
21001.000			19.941			-3.324
21100.000			19.940			-3.323
21200.000			19.939			-3.323
21301.000			19.939			-3.323
21400.000			19.937			-3.323
21500.000			19.937			-3.323
21602.000			19.936			-3.323
21701.000			19.932			-3.322
21800.000			19.931			-3.322
21901.000			19.930			-3.322
22000.000			19.928			-3.321
22100.000			19.928			-3.321
22201.000			19.927			-3.321
22300.000			19.925			-3.321
22401.000			19.924			-3.321
22502.000			19.922			-3.320
22600.000			19.919			-3.320
22700.000			19.919			-3.320
22801.000			19.918			-3.320
22900.000			19.917			-3.320
23000.000			19.917			-3.319
23101.000			19.915			-3.319
23201.000			19.912			-3.319
23301.000			19.912			-3.319
23401.000			19.911			-3.318
23500.000			19.910			-3.318
23600.000			19.908			-3.318
23700.000			19.908			-3.318
23800.000			19.906			-3.318
23901.000			19.904			-3.317
24001.000			19.903			-3.317
24101.000			19.902			-3.317
24201.000			19.901			-3.317
24300.000			19.899			-3.317
24400.000			19.898			-3.316
24501.000			19.897			-3.316
24600.000			19.895			-3.316
24700.000			19.894			-3.316
24801.000			19.893			-3.315
24901.000			19.892			-3.315
25001.000			19.890			-3.315
25101.000			19.889			-3.315
25200.000			19.888			-3.315
25300.000			19.888			-3.315
25401.000			19.885			-3.314
25500.000			19.884			-3.314
25600.000			19.883			-3.314
25702.000			19.883			-3.314
25801.000			19.881			-3.313
25900.000			19.879			-3.313
26001.000			19.879			-3.313
26100.000			19.876			-3.313
26200.000			19.875			-3.312
26301.000			19.874			-3.312
26400.000			19.874			-3.312
26501.000			19.873			-3.312
26602.000			19.872			-3.312
26701.000			19.871			-3.312
26800.000			19.869			-3.311
26900.000			19.868			-3.311
27000.000			19.868			-3.311
27101.000			19.867			-3.311
27200.000			19.864			-3.311
27300.000			19.863			-3.311
27402.000			19.863			-3.311
27501.000			19.861			-3.310
27600.000			19.859			-3.310
27701.000			19.858			-3.310
27800.000			19.858			-3.310
27900.000			19.857			-3.310
28001.000			19.856			-3.309
28100.000			19.855			-3.309
28201.000			19.855			-3.309
28302.000			19.853			-3.309
28401.000			19.851			-3.309
28500.000			19.850			-3.308
28601.000			19.849			-3.308
28700.000			19.848			-3.308
28800.000			19.847			-3.308
28901.000			19.846			-3.308
29000.000			19.846			-3.308
29101.000			19.843			-3.307
29202.000			19.842			-3.307
29300.000			19.842			-3.307
29400.000			19.840			-3.307
29501.000			19.840			-3.307
29600.000			19.840			-3.307
29700.000			19.839			-3.306
29801.000			19.837			-3.306
29901.000			19.836			-3.306
30002.000			19.835			-3.306
30101.000			19.835			-3.306
30200.000			19.834			-3.306
30301.000			19.833			-3.305
30400.000			19.831			-3.305
30500.000			19.831			-3.305
30601.000			19.830			-3.305
30701.000			19.828			-3.305
30801.000			19.828			-3.305
30901.000			19.827			-3.305
31000.000			19.826			-3.304
31100.000			19.826			-3.304
31201.000			19.824			-3.304
31300.000			19.822			-3.304
31400.000			19.822			-3.304
31502.000			19.821			-3.304
31601.000			19.821			-3.303
31700.000			19.819			-3.303
31801.000			19.819			-3.303
31900.000			19.817			-3.303
32000.000			19.816			-3.303
32101.000			19.815			-3.303
32200.000			19.815			-3.302
32300.000			19.814			-3.302
32402.000			19.813			-3.302
32501.000			19.812			-3.302
32600.000			19.810			-3.302
32701.000			19.810			-3.302
32800.000			19.809			-3.302
32900.000			19.808			-3.301
33001.000			19.806			-3.301
33101.000			19.806			-3.301
33202.000			19.805			-3.301
33301.000			19.805			-3.301
33400.000			19.804			-3.301
33501.000			19.803			-3.300
33600.000			19.800			-3.300
33700.000			19.800			-3.300
33801.000			19.799			-3.300
33900.000			19.799			-3.300
34001.000			19.798			-3.300
34102.000			19.796			-3.299
34200.000			19.797			-3.299
34300.000			19.796			-3.299
34401.000			19.795			-3.299
34500.000			19.794			-3.299
34600.000			19.793			-3.299
34701.000			19.793			-3.299
34801.000			19.791			-3.298
34901.000			19.790			-3.298
35002.000			19.790			-3.298
35100.000			19.789			-3.298
35200.000			19.788			-3.298
35301.000			19.788			-3.298
35400.000			19.788			-3.298
35500.000			19.785			-3.297
35601.000			19.784			-3.297
35701.000			19.783			-3.297
35801.000			19.783			-3.297
35901.000			19.781			-3.297
36000.000			19.780			-3.297
36100.000			19.779			-3.297
36201.000			19.779			-3.296
36300.000			19.779			-3.297
36400.000			19.779			-3.296
36502.000			19.777			-3.296
36601.000			19.776			-3.296
36701.000			19.775			-3.296
36800.000			19.774			-3.296
36900.000			19.774			-3.296
37001.000			19.773			-3.295
37100.000			19.772			-3.295
37200.000			19.772			-3.295
37302.000			19.771			-3.295
37401.000			19.770			-3.295
37500.000			19.769			-3.295
37601.000			19.769			-3.295
37700.000			19.768			-3.295
37800.000			19.767			-3.294
37901.000			19.765			-3.294
38000.000			19.764			-3.294
38100.000			19.764			-3.294
38202.000			19.763			-3.294
38301.000			19.763			-3.294
38400.000			19.763			-3.294
38501.000			19.761			-3.294
38600.000			19.759			-3.293
38700.000			19.759			-3.293
38801.000			19.759			-3.293
38900.000			19.759			-3.293
39001.000			19.757			-3.293
39102.000			19.757			-3.293
39201.000			19.754			-3.292
39300.000			19.755			-3.292
39401.000			19.755			-3.292
39500.000			19.753			-3.292
39600.000			19.753			-3.292
39700.000			19.752			-3.292
39800.000			19.751			-3.292
39902.000			19.750			-3.292
40001.000			19.748			-3.291
40100.000			19.748			-3.291
40201.000			19.748			-3.291
40300.000			19.748			-3.291
40400.000			19.746			-3.291
40501.000			19.745			-3.291
40600.000			19.746			-3.291
40701.000			19.745			-3.291
40802.000			19.744			-3.291
40900.000			19.744			-3.291
41000.000			19.743			-3.291
41101.000			19.742			-3.290
41200.000			19.741			-3.290
41300.000			19.740			-3.290
41401.000			19.740			-3.290
41501.000			19.739			-3.290
41601.000			19.737			-3.290
41701.000			19.737			-3.289
41800.000			19.737			-3.289
41900.000			19.736			-3.289
42001.000			19.735			-3.289
42100.000			19.735			-3.289
42200.000			19.734			-3.289
42302.000			19.734			-3.289
42401.000			19.733			-3.289
42500.000			19.732			-3.289
42601.000			19.731			-3.288
42700.000			19.730			-3.288
42800.000			19.729			-3.288
42900.000			19.728			-3.288
43000.000			19.726			-3.288
43102.000			19.726			-3.288
43201.000			19.726			-3.288
43300.000			19.726			-3.288
43401.000			19.725			-3.287
43500.000			19.724			-3.287
43600.000			19.724			-3.287
43701.000			19.723			-3.287
43800.000			19.723			-3.287
43901.000			19.723			-3.287
44002.000			19.721			-3.287
44100.000			19.720			-3.287
44200.000			19.721			-3.287
44301.000			19.718			-3.286
44400.000			19.719			-3.287
44500.000			19.719			-3.287
44601.000			19.718			-3.286
44701.000			19.717			-3.286
44801.000			19.716			-3.286
44901.000			19.715			-3.286
45000.000			19.714			-3.286
45100.000			19.714			-3.286
45201.000			19.714			-3.286
45300.000			19.714			-3.286
45400.000			19.712			-3.285
45502.000			19.712			-3.285
45601.000			19.711			-3.285
45700.000			19.711			-3.285
45801.000			19.709			-3.285
45900.000			19.709			-3.285
46000.000			19.708			-3.285
46100.000			19.707			-3.284
46200.000			19.706			-3.284
46302.000			19.707			-3.285
46401.000			19.706			-3.284
46500.000			19.705			-3.284
46601.000			19.704			-3.284
46700.000			19.704			-3.284
46800.000			19.703			-3.284
46901.000			19.702			-3.284
47000.000			19.702			-3.284
47101.000			19.701			-3.283
47202.000			19.700			-3.283
47301.000			19.700			-3.283
47400.000			19.700			-3.283
47501.000			19.699			-3.283
47600.000			19.698			-3.283
47700.000			19.698			-3.283
47801.000			19.698			-3.283
47900.000			19.696			-3.283
48001.000			19.696			-3.283
48102.000			19.694			-3.282
48200.000			19.695			-3.282
48300.000			19.695			-3.283
48401.000			19.694			-3.282
48500.000			19.693			-3.282
48600.000			19.691			-3.282
48701.000			19.690			-3.282
48801.000			19.690			-3.282
48901.000			19.690			-3.282
49002.000			19.689			-3.282
49100.000			19.689			-3.282
49200.000			19.689			-3.282
49300.000			19.687			-3.281
49400.000			19.686			-3.281
49501.000			19.686			-3.281
49600.000			19.686			-3.281
49701.000			19.686			-3.281
49802.000			19.686			-3.281
49900.000			19.685			-3.281
50000.000			19.684			-3.281
50101.000			19.683			-3.280
50200.000			19.682			-3.280
50300.000			19.681			-3.280
50401.000			19.681			-3.280
50501.000			19.680			-3.280
50601.000			19.680			-3.280
50701.000			19.680			-3.280
50800.000			19.679			-3.280
50900.000			19.679			-3.280
51001.000			19.678			-3.280
51100.000			19.678			-3.280
51200.000			19.677			-3.279
51301.000			19.675			-3.279
51401.000			19.675			-3.279
51501.000			19.676			-3.279
51601.000			19.674			-3.279
51700.000			19.673			-3.279
51800.000			19.673			-3.279
51901.000			19.673			-3.279
52000.000			19.672			-3.279
52100.000			19.671			-3.279
52202.000			19.671			-3.279
52301.000			19.670			-3.278
52400.000			19.670			-3.278
52500.000			19.669			-3.278
52600.000			19.669			-3.278
52701.000			19.669			-3.278
52800.000			19.668			-3.278
52900.000			19.666			-3.278
53002.000			19.666			-3.278
53101.000			19.666			-3.278
53200.000			19.665			-3.277
53301.000			19.665			-3.277
53400.000			19.665			-3.278
53500.000			19.664			-3.277
53601.000			19.662			-3.277
53700.000			19.661			-3.277
53801.000			19.662			-3.277
53902.000			19.662			-3.277
54000.000			19.661			-3.277
54100.000			19.661			-3.277
54201.000			19.660			-3.277
54300.000			19.660			-3.277
54400.000			19.658			-3.276
54501.000			19.658			-3.276
54601.000			19.657			-3.276
54701.000			19.657			-3.276
54802.000			19.656			-3.276
54900.000			19.656			-3.276
55000.000			19.655			-3.276
55101.000			19.654			-3.276
55200.000			19.653			-3.276
55300.000			19.653			-3.275
55401.000			19.653			-3.275
55501.000			19.652			-3.275
55602.000			19.652			-3.275
55700.000			19.652			-3.275
55800.000			19.651			-3.275
55901.000			19.651			-3.275
56000.000			19.650			-3.275
56100.000			19.650			-3.275
56201.000			19.649			-3.275
56301.000			19.648			-3.275
56401.000			19.648			-3.275
56501.000			19.647			-3.274
56600.000			19.647			-3.274
56700.000			19.646			-3.274
56801.000			19.646			-3.274
56900.000			19.645			-3.274
57000.000			19.645			-3.274
57101.000			19.644			-3.274
57201.000			19.643			-3.274
57301.000			19.644			-3.274
57401.000			19.644			-3.274
57500.000			19.642			-3.274
57600.000			19.641			-3.273
57701.000			19.641			-3.273
57800.000			19.641			-3.273
57900.000			19.640			-3.273
58002.000			19.638			-3.273
58101.000			19.638			-3.273
58200.000			19.638			-3.273
58301.000			19.637			-3.273
58400.000			19.637			-3.273
58500.000			19.637			-3.273
58601.000			19.637			-3.273
58700.000			19.635			-3.273
58800.000			19.635			-3.273
58902.000			19.634			-3.272
59001.000			19.634			-3.272
59101.000			19.632			-3.272
59200.000			19.632			-3.272
59300.000			19.632			-3.272
59401.000			19.632			-3.272
59500.000			19.631			-3.272
59600.000			19.630			-3.272
59702.000			19.630			-3.272
59801.000			19.630			-3.272
59900.000			19.630			-3.272
60001.000			19.630			-3.272
60100.000			19.628			-3.271
60200.000			19.629			-3.271
60301.000			19.628			-3.271
60400.000			19.628			-3.271
60501.000			19.627			-3.271
60602.000			19.626			-3.271
60700.000			19.625			-3.271
60800.000			19.626			-3.271
60901.000			19.626			-3.271
61000.000			19.624			-3.271
61100.000			19.624			-3.271
61201.000			19.625			-3.271
61301.000			19.623			-3.271
61401.000			19.623			-3.270
61501.000			19.623			-3.270
61600.000			19.622			-3.270
61700.000			19.620			-3.270
61801.000			19.620			-3.270
61900.000			19.620			-3.270
62000.000			19.619			-3.270
62102.000			19.619			-3.270
62201.000			19.620			-3.270
62301.000			19.620			-3.270
62400.000			19.618			-3.270
62500.000			19.617			-3.270
62601.000			19.616			-3.269
62700.000			19.616			-3.269
62800.000			19.616			-3.269
62902.000			19.615			-3.269
63001.000			19.614			-3.269
63101.000			19.614			-3.269
63201.000			19.614			-3.269
63300.000			19.613			-3.269
63400.000			19.613			-3.269
63501.000			19.613			-3.269
63600.000			19.613			-3.269
63700.000			19.613			-3.269
63802.000			19.612			-3.269
63901.000			19.611			-3.268
64000.000			19.611			-3.268
64101.000			19.610			-3.268
64200.000			19.610			-3.268
64300.000			19.611			-3.268
64401.000			19.610			-3.268
64500.000			19.610			-3.268
64601.000			19.607			-3.268
64702.000			19.607			-3.268
64800.000			19.606			-3.268
64900.000			19.607			-3.268
65001.000			19.607			-3.268
65100.000			19.605			-3.268
65200.000			19.606			-3.268
65300.000			19.604			-3.267
65401.000			19.605			-3.267
65502.000			19.604			-3.267
65600.000			19.603			-3.267
65700.000			19.603			-3.267
65801.000			19.603			-3.267
65900.000			19.602			-3.267
66000.000			19.602			-3.267
66101.000			19.599			-3.266
66201.000			19.600			-3.267
66301.000			19.600			-3.267
66401.000			19.599			-3.267
66500.000			19.599			-3.266
66600.000			19.598			-3.266
66701.000			19.598			-3.266
66800.000			19.598			-3.266
66900.000			19.598			-3.266
67001.000			19.597			-3.266
67101.000			19.596			-3.266
67201.000			19.596			-3.266
67301.000			19.595			-3.266
67400.000			19.596			-3.266
67500.000			19.594			-3.266
67601.000			19.594			-3.266
67700.000			19.594			-3.266
67800.000			19.593			-3.266
67902.000			19.593			-3.266
68001.000			19.592			-3.265
68101.000			19.592			-3.265
68201.000			19.592			-3.265
68300.000			19.590			-3.265
68400.000			19.590			-3.265
68500.000			19.590			-3.265
68600.000			19.590			-3.265
68701.000			19.590			-3.265
68801.000			19.590			-3.265
68901.000			19.590			-3.265
69001.000			19.589			-3.265
69100.000			19.588			-3.265
69200.000			19.588			-3.265
69301.000			19.587			-3.264
69400.000			19.586			-3.264
69500.000			19.586			-3.264
69601.000			19.586			-3.264
69701.000			19.585			-3.264
69801.000			19.584			-3.264
69901.000			19.585			-3.264
70000.000			19.585			-3.264
70100.000			19.585			-3.264
70201.000			19.584			-3.264
70300.000			19.583			-3.264
70400.000			19.583			-3.264
70502.000			19.582			-3.264
70601.000			19.582			-3.264
70700.000			19.581			-3.263
70801.000			19.580			-3.263
70900.000			19.579			-3.263
71000.000			19.579			-3.263
71101.000			19.579			-3.263
71200.000			19.579			-3.263
