# Acquired on 09/01/2024 11:55:33 
# SPIDER: Creep_-6mm_07714532C-2
# CREEP MEASUREMENT

# time [ms]		force [N]		stiffness [N/mm]
0.000			10.746			-1.791
101.000			11.419			-1.903
200.000			11.702			-1.950
301.000			11.718			-1.953
402.000			11.683			-1.947
500.000			11.656			-1.943
600.000			11.631			-1.939
701.000			11.611			-1.935
800.000			11.592			-1.932
900.000			11.575			-1.929
1002.000			11.559			-1.927
1101.000			11.533			-1.922
1200.000			11.521			-1.920
1301.000			11.508			-1.918
1400.000			11.497			-1.916
1500.000			11.488			-1.915
1601.000			11.479			-1.913
1700.000			11.470			-1.912
1801.000			11.453			-1.909
1902.000			11.445			-1.908
2000.000			11.438			-1.906
2100.000			11.431			-1.905
2201.000			11.423			-1.904
2300.000			11.416			-1.903
2400.000			11.410			-1.902
2502.000			11.398			-1.900
2601.000			11.392			-1.899
2700.000			11.386			-1.898
2801.000			11.380			-1.897
2900.000			11.375			-1.896
3000.000			11.370			-1.895
3100.000			11.364			-1.894
3200.000			11.356			-1.893
3302.000			11.351			-1.892
3401.000			11.346			-1.891
3500.000			11.341			-1.890
3601.000			11.336			-1.889
3700.000			11.332			-1.889
3800.000			11.328			-1.888
3901.000			11.324			-1.887
4000.000			11.317			-1.886
4101.000			11.313			-1.885
4202.000			11.309			-1.885
4300.000			11.305			-1.884
4400.000			11.302			-1.884
4501.000			11.299			-1.883
4600.000			11.294			-1.882
4700.000			11.287			-1.881
4802.000			11.284			-1.881
4901.000			11.281			-1.880
5000.000			11.278			-1.880
5101.000			11.275			-1.879
5200.000			11.272			-1.879
5300.000			11.268			-1.878
5401.000			11.263			-1.877
5501.000			11.260			-1.877
5601.000			11.257			-1.876
5702.000			11.254			-1.876
5800.000			11.251			-1.875
5900.000			11.250			-1.875
6001.000			11.247			-1.874
6100.000			11.240			-1.873
6200.000			11.238			-1.873
6302.000			11.235			-1.872
6401.000			11.232			-1.872
6501.000			11.229			-1.872
6600.000			11.228			-1.871
6700.000			11.225			-1.871
6801.000			11.220			-1.870
6900.000			11.219			-1.870
7000.000			11.217			-1.870
7102.000			11.215			-1.869
7201.000			11.210			-1.868
7300.000			11.208			-1.868
7401.000			11.207			-1.868
7500.000			11.205			-1.867
7600.000			11.201			-1.867
7701.000			11.198			-1.866
7801.000			11.195			-1.866
7901.000			11.193			-1.866
8001.000			11.192			-1.865
8100.000			11.189			-1.865
8200.000			11.187			-1.865
8301.000			11.183			-1.864
8400.000			11.181			-1.864
8500.000			11.179			-1.863
8602.000			11.177			-1.863
8701.000			11.175			-1.863
8800.000			11.174			-1.862
8901.000			11.172			-1.862
9000.000			11.168			-1.861
9100.000			11.166			-1.861
9201.000			11.164			-1.861
9301.000			11.163			-1.860
9402.000			11.161			-1.860
9500.000			11.160			-1.860
9600.000			11.157			-1.859
9701.000			11.153			-1.859
9800.000			11.152			-1.859
9900.000			11.151			-1.858
10001.000			11.149			-1.858
10101.000			11.146			-1.858
10201.000			11.145			-1.858
10301.000			11.144			-1.857
10400.000			11.142			-1.857
10500.000			11.138			-1.856
10601.000			11.136			-1.856
10700.000			11.135			-1.856
10801.000			11.134			-1.856
10902.000			11.133			-1.856
11001.000			11.132			-1.855
11100.000			11.130			-1.855
11201.000			11.127			-1.855
11300.000			11.127			-1.854
11400.000			11.125			-1.854
11501.000			11.123			-1.854
11601.000			11.121			-1.854
11701.000			11.120			-1.853
11801.000			11.118			-1.853
11900.000			11.116			-1.853
12000.000			11.115			-1.853
12101.000			11.113			-1.852
12200.000			11.112			-1.852
12301.000			11.110			-1.852
12402.000			11.109			-1.852
12500.000			11.109			-1.851
12600.000			11.105			-1.851
12700.000			11.104			-1.851
12800.000			11.103			-1.851
12901.000			11.102			-1.850
13000.000			11.100			-1.850
13101.000			11.098			-1.850
13202.000			11.096			-1.849
13300.000			11.096			-1.849
13400.000			11.094			-1.849
13501.000			11.093			-1.849
13600.000			11.091			-1.848
13700.000			11.090			-1.848
13801.000			11.089			-1.848
13901.000			11.087			-1.848
14001.000			11.086			-1.848
14101.000			11.085			-1.847
14200.000			11.083			-1.847
14300.000			11.083			-1.847
14401.000			11.082			-1.847
14500.000			11.080			-1.847
14601.000			11.079			-1.846
14702.000			11.078			-1.846
14801.000			11.075			-1.846
14900.000			11.073			-1.845
15001.000			11.072			-1.845
15100.000			11.071			-1.845
15200.000			11.071			-1.845
15301.000			11.071			-1.845
15401.000			11.070			-1.845
15501.000			11.066			-1.844
15601.000			11.065			-1.844
15700.000			11.065			-1.844
15800.000			11.065			-1.844
15900.000			11.064			-1.844
16000.000			11.062			-1.844
16101.000			11.063			-1.844
16201.000			11.062			-1.844
16301.000			11.059			-1.843
16401.000			11.058			-1.843
16500.000			11.057			-1.843
16600.000			11.056			-1.843
16701.000			11.055			-1.843
16800.000			11.054			-1.842
16900.000			11.053			-1.842
17002.000			11.051			-1.842
17101.000			11.050			-1.842
17200.000			11.048			-1.841
17301.000			11.048			-1.841
17400.000			11.048			-1.841
17500.000			11.047			-1.841
17601.000			11.045			-1.841
17700.000			11.044			-1.841
17801.000			11.043			-1.841
17902.000			11.042			-1.840
18000.000			11.041			-1.840
18100.000			11.040			-1.840
18201.000			11.038			-1.840
18300.000			11.037			-1.840
18400.000			11.036			-1.839
18502.000			11.036			-1.839
18601.000			11.035			-1.839
18700.000			11.034			-1.839
18801.000			11.032			-1.839
18900.000			11.031			-1.838
19000.000			11.031			-1.838
19100.000			11.030			-1.838
19200.000			11.028			-1.838
19302.000			11.027			-1.838
19401.000			11.026			-1.838
19500.000			11.025			-1.838
19601.000			11.024			-1.837
19700.000			11.024			-1.837
19800.000			11.023			-1.837
19901.000			11.021			-1.837
20000.000			11.021			-1.837
20101.000			11.020			-1.837
20202.000			11.020			-1.837
20300.000			11.018			-1.836
20400.000			11.017			-1.836
20501.000			11.015			-1.836
20600.000			11.015			-1.836
20700.000			11.013			-1.836
20802.000			11.012			-1.835
20901.000			11.012			-1.835
21000.000			11.010			-1.835
21101.000			11.010			-1.835
21200.000			11.009			-1.835
21300.000			11.008			-1.835
21401.000			11.007			-1.834
21500.000			11.005			-1.834
21601.000			11.006			-1.834
21702.000			11.005			-1.834
21800.000			11.005			-1.834
21900.000			11.005			-1.834
22001.000			11.003			-1.834
22100.000			11.001			-1.833
22200.000			11.000			-1.833
22302.000			10.999			-1.833
22401.000			10.998			-1.833
22501.000			10.996			-1.833
22600.000			10.996			-1.833
22700.000			10.996			-1.833
22801.000			10.995			-1.833
22900.000			10.994			-1.832
23000.000			10.993			-1.832
23102.000			10.991			-1.832
23201.000			10.992			-1.832
23300.000			10.991			-1.832
23401.000			10.989			-1.832
23500.000			10.989			-1.831
23600.000			10.987			-1.831
23701.000			10.988			-1.831
23800.000			10.987			-1.831
23901.000			10.986			-1.831
24002.000			10.985			-1.831
24101.000			10.985			-1.831
24200.000			10.984			-1.831
24301.000			10.983			-1.830
24400.000			10.982			-1.830
24500.000			10.981			-1.830
24601.000			10.980			-1.830
24700.000			10.979			-1.830
24801.000			10.979			-1.830
24902.000			10.978			-1.830
25000.000			10.976			-1.829
25100.000			10.976			-1.829
25201.000			10.976			-1.829
25300.000			10.975			-1.829
25400.000			10.974			-1.829
25500.000			10.973			-1.829
25601.000			10.974			-1.829
25702.000			10.972			-1.829
25800.000			10.971			-1.829
25900.000			10.970			-1.828
26001.000			10.969			-1.828
26100.000			10.969			-1.828
26200.000			10.970			-1.828
26301.000			10.968			-1.828
26401.000			10.967			-1.828
26501.000			10.966			-1.828
26601.000			10.965			-1.828
26700.000			10.965			-1.827
26800.000			10.964			-1.827
26901.000			10.963			-1.827
27000.000			10.963			-1.827
27100.000			10.962			-1.827
27202.000			10.961			-1.827
27301.000			10.960			-1.827
27400.000			10.959			-1.827
27501.000			10.959			-1.826
27600.000			10.959			-1.826
27700.000			10.958			-1.826
27801.000			10.956			-1.826
27900.000			10.957			-1.826
28001.000			10.957			-1.826
28102.000			10.956			-1.826
28200.000			10.955			-1.826
28300.000			10.954			-1.826
28401.000			10.954			-1.826
28500.000			10.953			-1.825
28600.000			10.953			-1.825
28700.000			10.952			-1.825
28800.000			10.952			-1.825
28902.000			10.950			-1.825
29001.000			10.949			-1.825
29100.000			10.949			-1.825
29201.000			10.948			-1.825
29300.000			10.948			-1.825
29400.000			10.947			-1.824
29501.000			10.946			-1.824
29600.000			10.945			-1.824
29701.000			10.945			-1.824
29802.000			10.944			-1.824
29900.000			10.943			-1.824
30000.000			10.942			-1.824
30101.000			10.942			-1.824
30200.000			10.941			-1.824
30300.000			10.942			-1.824
30401.000			10.941			-1.824
30501.000			10.940			-1.823
30601.000			10.939			-1.823
30701.000			10.938			-1.823
30800.000			10.936			-1.823
30900.000			10.935			-1.823
31001.000			10.936			-1.823
31100.000			10.936			-1.823
31200.000			10.934			-1.822
31302.000			10.933			-1.822
31401.000			10.933			-1.822
31500.000			10.932			-1.822
31601.000			10.931			-1.822
31700.000			10.931			-1.822
31800.000			10.931			-1.822
31900.000			10.932			-1.822
32001.000			10.930			-1.822
32102.000			10.929			-1.822
32201.000			10.928			-1.821
32300.000			10.927			-1.821
32401.000			10.927			-1.821
32500.000			10.927			-1.821
32600.000			10.926			-1.821
32701.000			10.925			-1.821
32801.000			10.924			-1.821
32901.000			10.924			-1.821
33001.000			10.923			-1.821
33100.000			10.923			-1.820
33200.000			10.923			-1.820
33301.000			10.923			-1.820
33400.000			10.921			-1.820
33500.000			10.921			-1.820
33602.000			10.920			-1.820
33701.000			10.919			-1.820
33800.000			10.918			-1.820
33901.000			10.918			-1.820
34000.000			10.918			-1.820
34100.000			10.916			-1.819
34201.000			10.915			-1.819
34300.000			10.916			-1.819
34401.000			10.914			-1.819
34502.000			10.913			-1.819
34600.000			10.913			-1.819
34700.000			10.913			-1.819
34801.000			10.913			-1.819
34900.000			10.912			-1.819
35000.000			10.911			-1.819
35100.000			10.911			-1.818
35201.000			10.910			-1.818
35302.000			10.910			-1.818
35400.000			10.910			-1.818
35500.000			10.909			-1.818
35601.000			10.909			-1.818
35700.000			10.908			-1.818
35800.000			10.907			-1.818
35901.000			10.907			-1.818
36001.000			10.906			-1.818
36101.000			10.906			-1.818
36201.000			10.905			-1.818
36300.000			10.904			-1.817
36400.000			10.904			-1.817
36501.000			10.903			-1.817
36600.000			10.902			-1.817
36701.000			10.903			-1.817
36802.000			10.902			-1.817
36900.000			10.901			-1.817
37000.000			10.901			-1.817
37101.000			10.900			-1.817
37200.000			10.899			-1.817
37300.000			10.899			-1.816
37401.000			10.898			-1.816
37501.000			10.898			-1.816
37601.000			10.899			-1.816
37701.000			10.898			-1.816
37800.000			10.897			-1.816
37900.000			10.897			-1.816
38001.000			10.895			-1.816
38100.000			10.894			-1.816
38200.000			10.894			-1.816
38300.000			10.894			-1.816
38401.000			10.893			-1.816
38502.000			10.893			-1.815
38600.000			10.892			-1.815
38700.000			10.893			-1.815
38801.000			10.892			-1.815
38900.000			10.891			-1.815
39000.000			10.891			-1.815
39101.000			10.891			-1.815
39201.000			10.889			-1.815
39301.000			10.888			-1.815
39401.000			10.889			-1.815
39500.000			10.889			-1.815
39600.000			10.887			-1.815
39701.000			10.887			-1.814
39800.000			10.887			-1.814
39900.000			10.887			-1.814
40002.000			10.886			-1.814
40101.000			10.886			-1.814
40200.000			10.886			-1.814
40301.000			10.885			-1.814
40400.000			10.884			-1.814
40500.000			10.883			-1.814
40601.000			10.883			-1.814
40700.000			10.883			-1.814
40801.000			10.883			-1.814
40902.000			10.882			-1.814
41000.000			10.882			-1.814
41100.000			10.881			-1.813
41201.000			10.881			-1.813
41300.000			10.881			-1.813
41400.000			10.880			-1.813
41500.000			10.879			-1.813
41601.000			10.878			-1.813
41702.000			10.877			-1.813
41800.000			10.877			-1.813
41900.000			10.877			-1.813
42001.000			10.876			-1.813
42100.000			10.875			-1.813
42200.000			10.874			-1.812
42301.000			10.874			-1.812
42401.000			10.875			-1.812
42501.000			10.874			-1.812
42601.000			10.873			-1.812
42700.000			10.873			-1.812
42800.000			10.873			-1.812
42901.000			10.873			-1.812
43000.000			10.872			-1.812
43100.000			10.872			-1.812
43202.000			10.872			-1.812
43301.000			10.871			-1.812
43400.000			10.871			-1.812
43501.000			10.869			-1.812
43600.000			10.869			-1.812
43700.000			10.869			-1.812
43801.000			10.869			-1.811
43900.000			10.868			-1.811
44001.000			10.869			-1.811
44102.000			10.868			-1.811
44200.000			10.868			-1.811
44300.000			10.867			-1.811
44401.000			10.865			-1.811
44500.000			10.864			-1.811
44600.000			10.865			-1.811
44700.000			10.865			-1.811
44801.000			10.864			-1.811
44902.000			10.864			-1.811
45000.000			10.864			-1.811
45100.000			10.863			-1.811
45201.000			10.863			-1.810
45300.000			10.862			-1.810
45400.000			10.861			-1.810
45501.000			10.861			-1.810
45601.000			10.861			-1.810
45701.000			10.860			-1.810
45801.000			10.860			-1.810
45900.000			10.860			-1.810
46000.000			10.859			-1.810
46101.000			10.859			-1.810
46200.000			10.858			-1.810
46300.000			10.857			-1.809
46402.000			10.858			-1.810
46501.000			10.858			-1.810
46600.000			10.857			-1.810
46701.000			10.856			-1.809
46800.000			10.856			-1.809
46900.000			10.855			-1.809
47001.000			10.854			-1.809
47100.000			10.854			-1.809
47201.000			10.853			-1.809
47302.000			10.854			-1.809
47400.000			10.853			-1.809
47500.000			10.853			-1.809
47601.000			10.852			-1.809
47700.000			10.852			-1.809
47800.000			10.852			-1.809
47900.000			10.852			-1.809
48001.000			10.851			-1.808
48102.000			10.849			-1.808
48200.000			10.850			-1.808
48300.000			10.850			-1.808
48401.000			10.850			-1.808
48500.000			10.849			-1.808
48600.000			10.848			-1.808
48701.000			10.847			-1.808
48801.000			10.848			-1.808
48901.000			10.847			-1.808
49001.000			10.847			-1.808
49100.000			10.846			-1.808
49200.000			10.846			-1.808
49301.000			10.845			-1.807
49400.000			10.845			-1.808
49500.000			10.844			-1.807
49602.000			10.844			-1.807
49701.000			10.843			-1.807
49801.000			10.842			-1.807
49901.000			10.842			-1.807
50000.000			10.842			-1.807
50100.000			10.842			-1.807
50201.000			10.842			-1.807
50300.000			10.840			-1.807
50401.000			10.840			-1.807
50502.000			10.840			-1.807
50601.000			10.840			-1.807
50700.000			10.839			-1.807
50801.000			10.839			-1.806
50900.000			10.839			-1.806
51000.000			10.837			-1.806
51100.000			10.836			-1.806
51200.000			10.837			-1.806
51302.000			10.836			-1.806
51401.000			10.836			-1.806
51500.000			10.837			-1.806
51601.000			10.837			-1.806
51700.000			10.836			-1.806
51800.000			10.834			-1.806
51901.000			10.834			-1.806
52001.000			10.834			-1.806
52101.000			10.833			-1.806
52201.000			10.833			-1.806
52300.000			10.833			-1.806
52400.000			10.832			-1.805
52501.000			10.833			-1.805
52600.000			10.833			-1.805
52700.000			10.832			-1.805
52802.000			10.831			-1.805
52901.000			10.831			-1.805
53000.000			10.830			-1.805
53101.000			10.830			-1.805
53200.000			10.829			-1.805
53300.000			10.829			-1.805
53401.000			10.829			-1.805
53500.000			10.829			-1.805
53601.000			10.828			-1.805
53702.000			10.828			-1.805
53800.000			10.828			-1.805
53900.000			10.826			-1.804
54001.000			10.826			-1.804
54100.000			10.826			-1.804
54200.000			10.827			-1.804
54300.000			10.827			-1.804
54401.000			10.825			-1.804
54502.000			10.824			-1.804
54600.000			10.824			-1.804
54700.000			10.824			-1.804
54801.000			10.824			-1.804
54900.000			10.823			-1.804
55000.000			10.823			-1.804
55101.000			10.823			-1.804
55201.000			10.822			-1.804
55301.000			10.823			-1.804
55401.000			10.821			-1.804
55500.000			10.821			-1.804
55600.000			10.821			-1.803
55701.000			10.821			-1.804
55800.000			10.821			-1.803
55900.000			10.820			-1.803
56002.000			10.819			-1.803
56101.000			10.819			-1.803
56200.000			10.818			-1.803
56301.000			10.818			-1.803
56400.000			10.818			-1.803
56500.000			10.817			-1.803
56601.000			10.817			-1.803
56700.000			10.816			-1.803
56801.000			10.817			-1.803
56902.000			10.818			-1.803
57000.000			10.817			-1.803
57100.000			10.816			-1.803
57201.000			10.816			-1.803
57300.000			10.814			-1.802
57400.000			10.814			-1.802
57500.000			10.814			-1.802
57601.000			10.814			-1.802
57702.000			10.814			-1.802
57800.000			10.813			-1.802
57900.000			10.813			-1.802
58001.000			10.812			-1.802
58100.000			10.811			-1.802
58200.000			10.811			-1.802
58301.000			10.811			-1.802
58401.000			10.811			-1.802
58501.000			10.810			-1.802
58601.000			10.810			-1.802
58700.000			10.810			-1.802
58800.000			10.810			-1.802
58901.000			10.809			-1.802
59000.000			10.809			-1.802
59100.000			10.809			-1.801
59202.000			10.808			-1.801
59301.000			10.808			-1.801
59400.000			10.808			-1.801
59501.000			10.807			-1.801
59600.000			10.807			-1.801
59700.000			10.806			-1.801
59801.000			10.806			-1.801
59900.000			10.806			-1.801
60001.000			10.807			-1.801
60102.000			10.806			-1.801
60200.000			10.806			-1.801
60300.000			10.805			-1.801
60401.000			10.805			-1.801
60500.000			10.804			-1.801
60600.000			10.804			-1.801
60700.000			10.804			-1.801
60801.000			10.804			-1.801
60902.000			10.804			-1.801
61000.000			10.804			-1.801
61100.000			10.803			-1.800
61201.000			10.802			-1.800
61300.000			10.802			-1.800
61400.000			10.802			-1.800
61502.000			10.802			-1.800
61601.000			10.801			-1.800
61700.000			10.801			-1.800
61801.000			10.801			-1.800
61900.000			10.799			-1.800
62000.000			10.799			-1.800
62101.000			10.799			-1.800
62200.000			10.799			-1.800
62301.000			10.799			-1.800
62402.000			10.799			-1.800
62501.000			10.799			-1.800
62600.000			10.797			-1.800
62701.000			10.796			-1.799
62800.000			10.796			-1.799
62900.000			10.797			-1.800
63001.000			10.797			-1.799
63101.000			10.796			-1.799
63201.000			10.795			-1.799
63301.000			10.795			-1.799
63400.000			10.794			-1.799
63500.000			10.794			-1.799
63601.000			10.794			-1.799
63700.000			10.794			-1.799
63800.000			10.794			-1.799
63900.000			10.794			-1.799
64001.000			10.793			-1.799
64102.000			10.793			-1.799
64200.000			10.792			-1.799
64300.000			10.793			-1.799
64401.000			10.793			-1.799
64500.000			10.792			-1.799
64600.000			10.791			-1.799
64701.000			10.791			-1.798
64801.000			10.790			-1.798
64901.000			10.790			-1.798
65001.000			10.790			-1.798
65100.000			10.791			-1.798
65200.000			10.790			-1.798
65301.000			10.790			-1.798
65400.000			10.789			-1.798
65500.000			10.789			-1.798
65602.000			10.789			-1.798
65701.000			10.788			-1.798
65800.000			10.786			-1.798
65901.000			10.788			-1.798
66000.000			10.787			-1.798
66100.000			10.787			-1.798
66201.000			10.787			-1.798
66300.000			10.786			-1.798
66401.000			10.786			-1.798
66502.000			10.785			-1.798
66600.000			10.785			-1.798
66700.000			10.785			-1.797
66801.000			10.784			-1.797
66900.000			10.784			-1.797
67000.000			10.784			-1.797
67100.000			10.783			-1.797
67201.000			10.783			-1.797
67302.000			10.783			-1.797
67400.000			10.783			-1.797
67500.000			10.783			-1.797
67601.000			10.783			-1.797
67700.000			10.782			-1.797
67800.000			10.781			-1.797
67901.000			10.781			-1.797
68000.000			10.781			-1.797
68101.000			10.780			-1.797
68202.000			10.780			-1.797
68300.000			10.780			-1.797
68400.000			10.779			-1.796
68501.000			10.779			-1.797
68600.000			10.779			-1.797
68700.000			10.779			-1.797
68801.000			10.779			-1.797
68901.000			10.778			-1.796
69001.000			10.778			-1.796
69101.000			10.778			-1.796
69200.000			10.777			-1.796
69300.000			10.777			-1.796
69401.000			10.776			-1.796
69500.000			10.777			-1.796
69600.000			10.777			-1.796
69702.000			10.776			-1.796
69801.000			10.776			-1.796
69900.000			10.775			-1.796
70001.000			10.776			-1.796
70100.000			10.775			-1.796
70200.000			10.774			-1.796
70300.000			10.774			-1.796
70400.000			10.773			-1.796
70502.000			10.774			-1.796
70601.000			10.774			-1.796
70700.000			10.774			-1.796
70801.000			10.773			-1.796
70900.000			10.773			-1.795
71000.000			10.772			-1.795
71101.000			10.772			-1.795
71200.000			10.772			-1.795
