# Acquired on 30/01/2024 10:17:22 
# SPIDER: Creep_-10mm_HM077x145x38AA-1
# CREEP MEASUREMENT

# time [ms]		force [N]		stiffness [N/mm]
1.000			57.227			-5.723
105.000			57.856			-5.786
203.000			57.873			-5.787
304.000			57.656			-5.766
405.000			57.494			-5.749
504.000			57.370			-5.737
604.000			57.172			-5.717
705.000			57.090			-5.709
804.000			57.016			-5.702
903.000			56.949			-5.695
1005.000			56.885			-5.689
1104.000			56.827			-5.683
1204.000			56.773			-5.677
1305.000			56.721			-5.672
1403.000			56.628			-5.663
1504.000			56.586			-5.659
1605.000			56.545			-5.655
1704.000			56.507			-5.651
1804.000			56.469			-5.647
1905.000			56.433			-5.643
2004.000			56.399			-5.640
2103.000			56.335			-5.633
2205.000			56.304			-5.630
2304.000			56.274			-5.627
2404.000			56.244			-5.624
2505.000			56.216			-5.622
2604.000			56.190			-5.619
2704.000			56.164			-5.616
2803.000			56.113			-5.611
2904.000			56.089			-5.609
3005.000			56.066			-5.607
3104.000			56.046			-5.605
3204.000			56.024			-5.602
3304.000			56.001			-5.600
3404.000			55.980			-5.598
3504.000			55.939			-5.594
3605.000			55.920			-5.592
3704.000			55.902			-5.590
3804.000			55.882			-5.588
3905.000			55.863			-5.586
4003.000			55.844			-5.584
4104.000			55.827			-5.583
4205.000			55.810			-5.581
4304.000			55.776			-5.578
4404.000			55.760			-5.576
4505.000			55.743			-5.574
4604.000			55.726			-5.573
4703.000			55.711			-5.571
4805.000			55.696			-5.570
4904.000			55.681			-5.568
5004.000			55.653			-5.565
5105.000			55.637			-5.564
5203.000			55.623			-5.562
5304.000			55.609			-5.561
5405.000			55.596			-5.560
5504.000			55.581			-5.558
5604.000			55.570			-5.557
5705.000			55.543			-5.554
5804.000			55.531			-5.553
5903.000			55.518			-5.552
6005.000			55.506			-5.551
6104.000			55.494			-5.549
6205.000			55.482			-5.548
6304.000			55.470			-5.547
6404.000			55.445			-5.545
6505.000			55.434			-5.543
6603.000			55.423			-5.542
6704.000			55.412			-5.541
6805.000			55.401			-5.540
6904.000			55.391			-5.539
7004.000			55.380			-5.538
7104.000			55.369			-5.537
7204.000			55.347			-5.535
7304.000			55.337			-5.534
7405.000			55.328			-5.533
7504.000			55.317			-5.532
7604.000			55.307			-5.531
7705.000			55.297			-5.530
7803.000			55.287			-5.529
7904.000			55.269			-5.527
8005.000			55.258			-5.526
8104.000			55.250			-5.525
8204.000			55.240			-5.524
8305.000			55.231			-5.523
8404.000			55.222			-5.522
8503.000			55.213			-5.521
8605.000			55.196			-5.520
8704.000			55.187			-5.519
8804.000			55.179			-5.518
8905.000			55.169			-5.517
9003.000			55.161			-5.516
9104.000			55.153			-5.515
9205.000			55.144			-5.514
9304.000			55.128			-5.513
9405.000			55.120			-5.512
9504.000			55.111			-5.511
9604.000			55.104			-5.510
9704.000			55.097			-5.510
9804.000			55.089			-5.509
9904.000			55.082			-5.508
10005.000			55.073			-5.507
10104.000			55.057			-5.506
10204.000			55.049			-5.505
10305.000			55.041			-5.504
10403.000			55.034			-5.503
10504.000			55.027			-5.503
10605.000			55.020			-5.502
10704.000			55.013			-5.501
10804.000			54.999			-5.500
10905.000			54.992			-5.499
11004.000			54.985			-5.498
11103.000			54.978			-5.498
11205.000			54.971			-5.497
11304.000			54.964			-5.496
11404.000			54.956			-5.496
11505.000			54.944			-5.494
11604.000			54.937			-5.494
11704.000			54.930			-5.493
11804.000			54.923			-5.492
11904.000			54.917			-5.492
12004.000			54.911			-5.491
12105.000			54.904			-5.490
12204.000			54.897			-5.490
12304.000			54.884			-5.488
12405.000			54.877			-5.488
12503.000			54.870			-5.487
12605.000			54.864			-5.486
12704.000			54.858			-5.486
12804.000			54.853			-5.485
12905.000			54.847			-5.485
13004.000			54.835			-5.483
13104.000			54.828			-5.483
13204.000			54.822			-5.482
13304.000			54.817			-5.482
13404.000			54.811			-5.481
13505.000			54.805			-5.481
13604.000			54.800			-5.480
13704.000			54.787			-5.479
13805.000			54.782			-5.478
13903.000			54.777			-5.478
14004.000			54.771			-5.477
14105.000			54.765			-5.476
14204.000			54.759			-5.476
14304.000			54.754			-5.475
14405.000			54.742			-5.474
14504.000			54.737			-5.474
14603.000			54.732			-5.473
14705.000			54.727			-5.473
14804.000			54.721			-5.472
14904.000			54.715			-5.472
15005.000			54.711			-5.471
15103.000			54.706			-5.471
15204.000			54.694			-5.469
15305.000			54.689			-5.469
15404.000			54.685			-5.468
15504.000			54.680			-5.468
15604.000			54.675			-5.467
15704.000			54.670			-5.467
15803.000			54.664			-5.466
15904.000			54.655			-5.465
16003.000			54.649			-5.465
16105.000			54.646			-5.465
16204.000			54.640			-5.464
16304.000			54.635			-5.463
16405.000			54.630			-5.463
16503.000			54.625			-5.463
16604.000			54.615			-5.462
16705.000			54.610			-5.461
16804.000			54.606			-5.461
16904.000			54.602			-5.460
17005.000			54.596			-5.460
17104.000			54.591			-5.459
17203.000			54.587			-5.459
17305.000			54.577			-5.458
17404.000			54.573			-5.457
17504.000			54.568			-5.457
17605.000			54.565			-5.456
17704.000			54.559			-5.456
17804.000			54.554			-5.455
17904.000			54.550			-5.455
18004.000			54.546			-5.455
18104.000			54.537			-5.454
18205.000			54.534			-5.453
18304.000			54.530			-5.453
18404.000			54.525			-5.452
18505.000			54.520			-5.452
18603.000			54.515			-5.451
18704.000			54.511			-5.451
18805.000			54.502			-5.450
18904.000			54.498			-5.450
19005.000			54.493			-5.449
19104.000			54.489			-5.449
19204.000			54.485			-5.448
19304.000			54.481			-5.448
19404.000			54.478			-5.448
19504.000			54.470			-5.447
19605.000			54.465			-5.447
19704.000			54.461			-5.446
19804.000			54.457			-5.446
19905.000			54.454			-5.445
20003.000			54.450			-5.445
20104.000			54.445			-5.444
20205.000			54.436			-5.444
20304.000			54.432			-5.443
20404.000			54.429			-5.443
20505.000			54.425			-5.443
20604.000			54.422			-5.442
20703.000			54.417			-5.442
20805.000			54.413			-5.441
20904.000			54.408			-5.441
21004.000			54.402			-5.440
21105.000			54.398			-5.440
21204.000			54.395			-5.439
21304.000			54.390			-5.439
21404.000			54.387			-5.439
21504.000			54.383			-5.438
21604.000			54.378			-5.438
21705.000			54.371			-5.437
21804.000			54.368			-5.437
21904.000			54.364			-5.436
22005.000			54.360			-5.436
22103.000			54.356			-5.436
22205.000			54.352			-5.435
22304.000			54.349			-5.435
22404.000			54.342			-5.434
22505.000			54.339			-5.434
22604.000			54.335			-5.434
22704.000			54.332			-5.433
22804.000			54.328			-5.433
22904.000			54.325			-5.432
23004.000			54.321			-5.432
23105.000			54.312			-5.431
23204.000			54.308			-5.431
23303.000			54.306			-5.431
23405.000			54.303			-5.430
23504.000			54.299			-5.430
23604.000			54.295			-5.430
23705.000			54.292			-5.429
23804.000			54.289			-5.429
23904.000			54.282			-5.428
24004.000			54.279			-5.428
24104.000			54.276			-5.428
24204.000			54.273			-5.427
24305.000			54.269			-5.427
24404.000			54.265			-5.427
24504.000			54.262			-5.426
24605.000			54.255			-5.425
24703.000			54.251			-5.425
24804.000			54.248			-5.425
24905.000			54.245			-5.425
25004.000			54.242			-5.424
25104.000			54.238			-5.424
25204.000			54.235			-5.423
25304.000			54.229			-5.423
25403.000			54.226			-5.423
25504.000			54.223			-5.422
25604.000			54.219			-5.422
25705.000			54.217			-5.422
25804.000			54.214			-5.421
25904.000			54.210			-5.421
26005.000			54.203			-5.420
26103.000			54.200			-5.420
26204.000			54.197			-5.420
26305.000			54.194			-5.419
26404.000			54.191			-5.419
26504.000			54.188			-5.419
26604.000			54.184			-5.418
26704.000			54.181			-5.418
26803.000			54.175			-5.417
26905.000			54.172			-5.417
27004.000			54.170			-5.417
27104.000			54.165			-5.417
27205.000			54.162			-5.416
27303.000			54.161			-5.416
27404.000			54.157			-5.416
27505.000			54.152			-5.415
27604.000			54.148			-5.415
27704.000			54.145			-5.415
27805.000			54.142			-5.414
27904.000			54.140			-5.414
28003.000			54.137			-5.414
28105.000			54.134			-5.413
28204.000			54.126			-5.413
28304.000			54.123			-5.412
28405.000			54.121			-5.412
28504.000			54.118			-5.412
28605.000			54.114			-5.411
28703.000			54.113			-5.411
28804.000			54.111			-5.411
28905.000			54.105			-5.411
29004.000			54.102			-5.410
29104.000			54.097			-5.410
29205.000			54.094			-5.409
29304.000			54.092			-5.409
29403.000			54.090			-5.409
29505.000			54.089			-5.409
29604.000			54.085			-5.409
29704.000			54.078			-5.408
29805.000			54.075			-5.407
29904.000			54.073			-5.407
30004.000			54.070			-5.407
30104.000			54.068			-5.407
30204.000			54.065			-5.407
30304.000			54.062			-5.406
30405.000			54.057			-5.406
30504.000			54.054			-5.405
30604.000			54.051			-5.405
30705.000			54.048			-5.405
30804.000			54.045			-5.405
30904.000			54.043			-5.404
31005.000			54.041			-5.404
31104.000			54.035			-5.403
31204.000			54.033			-5.403
31304.000			54.030			-5.403
31404.000			54.027			-5.403
31504.000			54.024			-5.402
31604.000			54.021			-5.402
31704.000			54.018			-5.402
31805.000			54.014			-5.401
31904.000			54.011			-5.401
32003.000			54.008			-5.401
32105.000			54.006			-5.401
32204.000			54.003			-5.400
32304.000			54.000			-5.400
32405.000			53.999			-5.400
32504.000			53.997			-5.400
32604.000			53.990			-5.399
32704.000			53.987			-5.399
32804.000			53.985			-5.398
32904.000			53.983			-5.398
33005.000			53.980			-5.398
33104.000			53.977			-5.398
33204.000			53.975			-5.398
33305.000			53.970			-5.397
33403.000			53.968			-5.397
33504.000			53.965			-5.397
33605.000			53.964			-5.396
33704.000			53.961			-5.396
33804.000			53.958			-5.396
33905.000			53.955			-5.396
34004.000			53.950			-5.395
34103.000			53.948			-5.395
34205.000			53.945			-5.395
34304.000			53.942			-5.394
34404.000			53.940			-5.394
34505.000			53.938			-5.394
34604.000			53.935			-5.394
34704.000			53.933			-5.393
34803.000			53.928			-5.393
34904.000			53.925			-5.393
35005.000			53.923			-5.392
35104.000			53.921			-5.392
35204.000			53.919			-5.392
35305.000			53.917			-5.392
35404.000			53.915			-5.391
35503.000			53.910			-5.391
35605.000			53.907			-5.391
35704.000			53.904			-5.390
35804.000			53.902			-5.390
35905.000			53.901			-5.390
36004.000			53.899			-5.390
36104.000			53.896			-5.390
36204.000			53.889			-5.389
36304.000			53.888			-5.389
36404.000			53.887			-5.389
36505.000			53.884			-5.388
36604.000			53.881			-5.388
36704.000			53.879			-5.388
36805.000			53.877			-5.388
36903.000			53.872			-5.387
37004.000			53.870			-5.387
37105.000			53.867			-5.387
37204.000			53.865			-5.387
37304.000			53.863			-5.386
37405.000			53.862			-5.386
37504.000			53.859			-5.386
37603.000			53.856			-5.386
37705.000			53.850			-5.385
37804.000			53.849			-5.385
37904.000			53.847			-5.385
38005.000			53.845			-5.385
38104.000			53.842			-5.384
38205.000			53.839			-5.384
38303.000			53.837			-5.384
38404.000			53.833			-5.383
38505.000			53.831			-5.383
38604.000			53.829			-5.383
38704.000			53.826			-5.383
38804.000			53.825			-5.382
38904.000			53.824			-5.382
39003.000			53.822			-5.382
39105.000			53.817			-5.382
39204.000			53.815			-5.382
39304.000			53.812			-5.381
39405.000			53.811			-5.381
39503.000			53.808			-5.381
39604.000			53.807			-5.381
39704.000			53.803			-5.380
39804.000			53.798			-5.380
39904.000			53.797			-5.380
40005.000			53.795			-5.380
40104.000			53.794			-5.379
40203.000			53.791			-5.379
40305.000			53.788			-5.379
40404.000			53.785			-5.379
40504.000			53.784			-5.378
40605.000			53.780			-5.378
40704.000			53.779			-5.378
40804.000			53.776			-5.378
40904.000			53.774			-5.377
41004.000			53.772			-5.377
41104.000			53.770			-5.377
41204.000			53.767			-5.377
41304.000			53.764			-5.376
41405.000			53.762			-5.376
41504.000			53.760			-5.376
41603.000			53.758			-5.376
41705.000			53.757			-5.376
41804.000			53.753			-5.375
41904.000			53.751			-5.375
42005.000			53.746			-5.375
42104.000			53.745			-5.374
42204.000			53.744			-5.374
42304.000			53.742			-5.374
42404.000			53.739			-5.374
42504.000			53.737			-5.374
42605.000			53.734			-5.373
42704.000			53.732			-5.373
42804.000			53.729			-5.373
42905.000			53.726			-5.373
43003.000			53.725			-5.372
43104.000			53.724			-5.372
43205.000			53.722			-5.372
43304.000			53.720			-5.372
43404.000			53.717			-5.372
43505.000			53.714			-5.371
43604.000			53.712			-5.371
43703.000			53.710			-5.371
43805.000			53.706			-5.371
43904.000			53.705			-5.370
44004.000			53.704			-5.370
44105.000			53.702			-5.370
44203.000			53.697			-5.370
44304.000			53.695			-5.369
44405.000			53.692			-5.369
44504.000			53.691			-5.369
44605.000			53.690			-5.369
44704.000			53.689			-5.369
44804.000			53.687			-5.369
44904.000			53.682			-5.368
45004.000			53.681			-5.368
45103.000			53.679			-5.368
45205.000			53.676			-5.368
45304.000			53.676			-5.368
45404.000			53.674			-5.367
45505.000			53.671			-5.367
45604.000			53.667			-5.367
45704.000			53.664			-5.366
45804.000			53.663			-5.366
45904.000			53.660			-5.366
46004.000			53.658			-5.366
46105.000			53.657			-5.366
46204.000			53.656			-5.366
46303.000			53.654			-5.365
46405.000			53.651			-5.365
46504.000			53.648			-5.365
46604.000			53.646			-5.365
46705.000			53.645			-5.365
46804.000			53.643			-5.364
46904.000			53.641			-5.364
47004.000			53.640			-5.364
47104.000			53.636			-5.364
47203.000			53.633			-5.363
47305.000			53.632			-5.363
47404.000			53.630			-5.363
47504.000			53.628			-5.363
47605.000			53.628			-5.363
47703.000			53.625			-5.363
47805.000			53.622			-5.362
47904.000			53.621			-5.362
48004.000			53.618			-5.362
48105.000			53.616			-5.362
48204.000			53.614			-5.361
48304.000			53.613			-5.361
48404.000			53.611			-5.361
48504.000			53.608			-5.361
48604.000			53.606			-5.361
48705.000			53.604			-5.360
48804.000			53.602			-5.360
48904.000			53.601			-5.360
49005.000			53.599			-5.360
49103.000			53.597			-5.360
49204.000			53.595			-5.360
49305.000			53.592			-5.359
49404.000			53.591			-5.359
49504.000			53.590			-5.359
49605.000			53.586			-5.359
49704.000			53.584			-5.358
49803.000			53.583			-5.358
49905.000			53.581			-5.358
50004.000			53.577			-5.358
50104.000			53.575			-5.358
50205.000			53.574			-5.357
50304.000			53.571			-5.357
50404.000			53.571			-5.357
50504.000			53.569			-5.357
50604.000			53.567			-5.357
50704.000			53.565			-5.357
50804.000			53.564			-5.356
50904.000			53.562			-5.356
51005.000			53.560			-5.356
51104.000			53.558			-5.356
51203.000			53.556			-5.356
51305.000			53.554			-5.355
51404.000			53.551			-5.355
51504.000			53.549			-5.355
51605.000			53.548			-5.355
51704.000			53.545			-5.355
51804.000			53.543			-5.354
51904.000			53.542			-5.354
52004.000			53.541			-5.354
52104.000			53.539			-5.354
52205.000			53.535			-5.354
52304.000			53.535			-5.353
52404.000			53.533			-5.353
52505.000			53.531			-5.353
52603.000			53.530			-5.353
52704.000			53.528			-5.353
52805.000			53.526			-5.353
52904.000			53.522			-5.352
53004.000			53.522			-5.352
53105.000			53.521			-5.352
53204.000			53.518			-5.352
53303.000			53.517			-5.352
53405.000			53.515			-5.352
53504.000			53.513			-5.351
53604.000			53.509			-5.351
53705.000			53.508			-5.351
53804.000			53.507			-5.351
53904.000			53.506			-5.351
54003.000			53.504			-5.350
54104.000			53.502			-5.350
54205.000			53.501			-5.350
54304.000			53.499			-5.350
54404.000			53.496			-5.350
54504.000			53.493			-5.349
54604.000			53.492			-5.349
54703.000			53.489			-5.349
54805.000			53.487			-5.349
54904.000			53.486			-5.349
55004.000			53.485			-5.349
55105.000			53.482			-5.348
55204.000			53.480			-5.348
55304.000			53.479			-5.348
55404.000			53.478			-5.348
55504.000			53.477			-5.348
55604.000			53.474			-5.347
55705.000			53.472			-5.347
55804.000			53.470			-5.347
55904.000			53.468			-5.347
56005.000			53.466			-5.347
56103.000			53.465			-5.346
56204.000			53.463			-5.346
56305.000			53.462			-5.346
56404.000			53.461			-5.346
56504.000			53.457			-5.346
56604.000			53.456			-5.346
56704.000			53.454			-5.345
56803.000			53.453			-5.345
56905.000			53.451			-5.345
57004.000			53.449			-5.345
57104.000			53.449			-5.345
57205.000			53.446			-5.345
57304.000			53.443			-5.344
57405.000			53.442			-5.344
57503.000			53.441			-5.344
57604.000			53.439			-5.344
57705.000			53.437			-5.344
57804.000			53.436			-5.344
57904.000			53.434			-5.343
58005.000			53.431			-5.343
58104.000			53.430			-5.343
58203.000			53.428			-5.343
58305.000			53.426			-5.343
58404.000			53.426			-5.343
58504.000			53.424			-5.342
58605.000			53.423			-5.342
58703.000			53.419			-5.342
58804.000			53.417			-5.342
58904.000			53.416			-5.342
59004.000			53.414			-5.341
59104.000			53.413			-5.341
59205.000			53.412			-5.341
59304.000			53.410			-5.341
59403.000			53.408			-5.341
59505.000			53.406			-5.341
59604.000			53.405			-5.340
59704.000			53.403			-5.340
59805.000			53.403			-5.340
59904.000			53.401			-5.340
60004.000			53.399			-5.340
60104.000			53.397			-5.340
60204.000			53.395			-5.339
60304.000			53.392			-5.339
60404.000			53.391			-5.339
60504.000			53.390			-5.339
60605.000			53.388			-5.339
60704.000			53.387			-5.339
60803.000			53.387			-5.339
60905.000			53.384			-5.338
61004.000			53.382			-5.338
61104.000			53.381			-5.338
61205.000			53.379			-5.338
61304.000			53.376			-5.338
61404.000			53.375			-5.338
61504.000			53.374			-5.337
61604.000			53.372			-5.337
61704.000			53.371			-5.337
61805.000			53.369			-5.337
61904.000			53.367			-5.337
62004.000			53.366			-5.337
62105.000			53.364			-5.336
62203.000			53.363			-5.336
62304.000			53.361			-5.336
62405.000			53.359			-5.336
62504.000			53.356			-5.336
62604.000			53.354			-5.335
62705.000			53.353			-5.335
62804.000			53.353			-5.335
62903.000			53.351			-5.335
63005.000			53.351			-5.335
63104.000			53.348			-5.335
63204.000			53.346			-5.335
63305.000			53.345			-5.335
63404.000			53.343			-5.334
63504.000			53.342			-5.334
63603.000			53.341			-5.334
63704.000			53.340			-5.334
63805.000			53.336			-5.334
63904.000			53.335			-5.333
64004.000			53.334			-5.333
64105.000			53.332			-5.333
64204.000			53.331			-5.333
64303.000			53.329			-5.333
64405.000			53.328			-5.333
64504.000			53.325			-5.333
64604.000			53.325			-5.332
64705.000			53.323			-5.332
64803.000			53.321			-5.332
64904.000			53.320			-5.332
65005.000			53.319			-5.332
65104.000			53.317			-5.332
65204.000			53.314			-5.331
65305.000			53.312			-5.331
65404.000			53.312			-5.331
65503.000			53.311			-5.331
65605.000			53.309			-5.331
65704.000			53.309			-5.331
65804.000			53.307			-5.331
65905.000			53.304			-5.330
66004.000			53.302			-5.330
66104.000			53.301			-5.330
66204.000			53.300			-5.330
66304.000			53.298			-5.330
66404.000			53.297			-5.330
66505.000			53.296			-5.330
66604.000			53.295			-5.329
66704.000			53.292			-5.329
66805.000			53.290			-5.329
66903.000			53.290			-5.329
67005.000			53.289			-5.329
67104.000			53.287			-5.329
67204.000			53.287			-5.329
67305.000			53.284			-5.328
67404.000			53.282			-5.328
67504.000			53.280			-5.328
67604.000			53.278			-5.328
67704.000			53.278			-5.328
67804.000			53.276			-5.328
67905.000			53.275			-5.328
68004.000			53.274			-5.327
68104.000			53.271			-5.327
68205.000			53.270			-5.327
68303.000			53.268			-5.327
68404.000			53.267			-5.327
68505.000			53.266			-5.327
68604.000			53.264			-5.326
68704.000			53.262			-5.326
68805.000			53.260			-5.326
68904.000			53.260			-5.326
69003.000			53.258			-5.326
69105.000			53.255			-5.326
69204.000			53.255			-5.325
69304.000			53.255			-5.325
69405.000			53.254			-5.325
69504.000			53.252			-5.325
69604.000			53.250			-5.325
69704.000			53.248			-5.325
69804.000			53.246			-5.325
69903.000			53.244			-5.324
70005.000			53.245			-5.324
70104.000			53.243			-5.324
70205.000			53.242			-5.324
70304.000			53.239			-5.324
70404.000			53.238			-5.324
70505.000			53.237			-5.324
70603.000			53.237			-5.324
70704.000			53.235			-5.324
70805.000			53.234			-5.323
70904.000			53.233			-5.323
71004.000			53.230			-5.323
71105.000			53.227			-5.323
71204.000			53.226			-5.323
