# Acquired on 09/01/2024 12:30:53 
# SPIDER: Creep_8mm_07714532B-2
# CREEP MEASUREMENT

# time [ms]		force [N]		stiffness [N/mm]
0.000			-34.338			-4.292
100.000			-36.103			-4.513
201.000			-36.886			-4.611
300.000			-36.669			-4.584
401.000			-36.483			-4.560
501.000			-36.333			-4.542
600.000			-36.208			-4.526
701.000			-36.098			-4.512
800.000			-36.001			-4.500
900.000			-35.915			-4.489
1001.000			-35.765			-4.471
1100.000			-35.699			-4.462
1201.000			-35.638			-4.455
1302.000			-35.580			-4.447
1400.000			-35.526			-4.441
1500.000			-35.477			-4.435
1601.000			-35.429			-4.429
1700.000			-35.342			-4.418
1800.000			-35.301			-4.413
1902.000			-35.262			-4.408
2001.000			-35.226			-4.403
2100.000			-35.191			-4.399
2201.000			-35.157			-4.395
2300.000			-35.125			-4.391
2400.000			-35.064			-4.383
2501.000			-35.035			-4.379
2600.000			-35.007			-4.376
2701.000			-34.980			-4.373
2802.000			-34.955			-4.369
2900.000			-34.930			-4.366
3000.000			-34.904			-4.363
3101.000			-34.880			-4.360
3200.000			-34.835			-4.354
3300.000			-34.812			-4.352
3401.000			-34.791			-4.349
3501.000			-34.770			-4.346
3602.000			-34.749			-4.344
3700.000			-34.730			-4.341
3800.000			-34.712			-4.339
3901.000			-34.673			-4.334
4000.000			-34.655			-4.332
4100.000			-34.638			-4.330
4202.000			-34.620			-4.328
4301.000			-34.604			-4.325
4400.000			-34.586			-4.323
4501.000			-34.571			-4.321
4600.000			-34.539			-4.317
4700.000			-34.525			-4.316
4801.000			-34.510			-4.314
4900.000			-34.493			-4.312
5001.000			-34.478			-4.310
5102.000			-34.465			-4.308
5200.000			-34.451			-4.306
5300.000			-34.423			-4.303
5401.000			-34.409			-4.301
5500.000			-34.397			-4.300
5600.000			-34.385			-4.298
5702.000			-34.372			-4.297
5801.000			-34.359			-4.295
5900.000			-34.347			-4.293
6001.000			-34.335			-4.292
6100.000			-34.312			-4.289
6200.000			-34.300			-4.287
6301.000			-34.289			-4.286
6400.000			-34.276			-4.285
6501.000			-34.265			-4.283
6602.000			-34.255			-4.282
6700.000			-34.245			-4.281
6801.000			-34.223			-4.278
6900.000			-34.213			-4.277
7000.000			-34.202			-4.275
7101.000			-34.191			-4.274
7200.000			-34.181			-4.273
7301.000			-34.172			-4.271
7402.000			-34.163			-4.270
7500.000			-34.145			-4.268
7600.000			-34.135			-4.267
7701.000			-34.124			-4.266
7800.000			-34.115			-4.264
7900.000			-34.107			-4.263
8002.000			-34.098			-4.262
8101.000			-34.089			-4.261
8200.000			-34.071			-4.259
8301.000			-34.063			-4.258
8400.000			-34.055			-4.257
8500.000			-34.047			-4.256
8601.000			-34.039			-4.255
8700.000			-34.031			-4.254
8801.000			-34.023			-4.253
8901.000			-34.014			-4.252
9000.000			-33.997			-4.250
9100.000			-33.989			-4.249
9201.000			-33.982			-4.248
9300.000			-33.975			-4.247
9400.000			-33.967			-4.246
9502.000			-33.959			-4.245
9601.000			-33.953			-4.244
9700.000			-33.937			-4.242
9801.000			-33.929			-4.241
9900.000			-33.922			-4.240
10001.000			-33.916			-4.239
10100.000			-33.908			-4.239
10200.000			-33.901			-4.238
10302.000			-33.894			-4.237
10401.000			-33.881			-4.235
10500.000			-33.874			-4.234
10601.000			-33.867			-4.233
10700.000			-33.861			-4.233
10800.000			-33.855			-4.232
10901.000			-33.848			-4.231
11000.000			-33.841			-4.230
11101.000			-33.835			-4.229
11202.000			-33.822			-4.228
11300.000			-33.814			-4.227
11400.000			-33.809			-4.226
11501.000			-33.803			-4.225
11600.000			-33.797			-4.225
11700.000			-33.791			-4.224
11801.000			-33.784			-4.223
11901.000			-33.772			-4.222
12001.000			-33.766			-4.221
12101.000			-33.760			-4.220
12200.000			-33.754			-4.219
12300.000			-33.749			-4.219
12401.000			-33.744			-4.218
12500.000			-33.739			-4.217
12600.000			-33.728			-4.216
12702.000			-33.722			-4.215
12801.000			-33.716			-4.215
12900.000			-33.710			-4.214
13001.000			-33.705			-4.213
13100.000			-33.699			-4.212
13201.000			-33.694			-4.212
13300.000			-33.684			-4.211
13400.000			-33.678			-4.210
13502.000			-33.673			-4.209
13601.000			-33.667			-4.208
13700.000			-33.663			-4.208
13801.000			-33.659			-4.207
13900.000			-33.653			-4.207
14000.000			-33.648			-4.206
14101.000			-33.637			-4.205
14200.000			-33.632			-4.204
14301.000			-33.627			-4.203
14402.000			-33.622			-4.203
14500.000			-33.617			-4.202
14600.000			-33.612			-4.202
14701.000			-33.608			-4.201
14800.000			-33.598			-4.200
14900.000			-33.594			-4.199
15001.000			-33.588			-4.199
15101.000			-33.584			-4.198
15201.000			-33.579			-4.197
15301.000			-33.574			-4.197
15400.000			-33.569			-4.196
15500.000			-33.561			-4.195
15601.000			-33.557			-4.195
15700.000			-33.552			-4.194
15800.000			-33.548			-4.194
15902.000			-33.544			-4.193
16001.000			-33.538			-4.192
16100.000			-33.534			-4.192
16201.000			-33.525			-4.191
16300.000			-33.520			-4.190
16401.000			-33.516			-4.189
16500.000			-33.512			-4.189
16600.000			-33.508			-4.189
16702.000			-33.504			-4.188
16801.000			-33.500			-4.187
16900.000			-33.496			-4.187
17001.000			-33.487			-4.186
17100.000			-33.483			-4.185
17200.000			-33.480			-4.185
17301.000			-33.476			-4.184
17400.000			-33.471			-4.184
17501.000			-33.467			-4.183
17602.000			-33.464			-4.183
17700.000			-33.456			-4.182
17800.000			-33.452			-4.181
17901.000			-33.447			-4.181
18000.000			-33.443			-4.180
18100.000			-33.439			-4.180
18202.000			-33.436			-4.179
18301.000			-33.432			-4.179
18401.000			-33.426			-4.178
18501.000			-33.420			-4.177
18600.000			-33.415			-4.177
18700.000			-33.412			-4.176
18801.000			-33.408			-4.176
18900.000			-33.404			-4.176
19001.000			-33.401			-4.175
19102.000			-33.394			-4.174
19201.000			-33.391			-4.174
19300.000			-33.386			-4.173
19401.000			-33.384			-4.173
19500.000			-33.380			-4.172
19601.000			-33.376			-4.172
19700.000			-33.372			-4.172
19800.000			-33.368			-4.171
19902.000			-33.361			-4.170
20001.000			-33.358			-4.170
20100.000			-33.354			-4.169
20201.000			-33.351			-4.169
20300.000			-33.349			-4.169
20400.000			-33.345			-4.168
20501.000			-33.342			-4.168
20601.000			-33.335			-4.167
20701.000			-33.331			-4.166
20801.000			-33.328			-4.166
20900.000			-33.324			-4.166
21000.000			-33.321			-4.165
21101.000			-33.318			-4.165
21200.000			-33.315			-4.164
21300.000			-33.308			-4.163
21402.000			-33.305			-4.163
21501.000			-33.301			-4.163
21600.000			-33.298			-4.162
21701.000			-33.294			-4.162
21800.000			-33.291			-4.161
21900.000			-33.288			-4.161
22001.000			-33.285			-4.161
22100.000			-33.280			-4.160
22201.000			-33.277			-4.160
22302.000			-33.273			-4.159
22400.000			-33.269			-4.159
22500.000			-33.266			-4.158
22601.000			-33.263			-4.158
22700.000			-33.259			-4.157
22801.000			-33.254			-4.157
22900.000			-33.251			-4.156
23001.000			-33.248			-4.156
23102.000			-33.244			-4.155
23200.000			-33.241			-4.155
23300.000			-33.239			-4.155
23401.000			-33.236			-4.154
23500.000			-33.229			-4.154
23600.000			-33.228			-4.153
23702.000			-33.225			-4.153
23801.000			-33.221			-4.153
23901.000			-33.218			-4.152
24001.000			-33.215			-4.152
24100.000			-33.212			-4.151
24200.000			-33.206			-4.151
24301.000			-33.204			-4.150
24400.000			-33.201			-4.150
24501.000			-33.197			-4.150
24602.000			-33.194			-4.149
24700.000			-33.192			-4.149
24800.000			-33.190			-4.149
24901.000			-33.187			-4.148
25000.000			-33.180			-4.148
25100.000			-33.177			-4.147
25201.000			-33.175			-4.147
25301.000			-33.174			-4.147
25401.000			-33.171			-4.146
25501.000			-33.167			-4.146
25600.000			-33.164			-4.146
25700.000			-33.159			-4.145
25801.000			-33.156			-4.144
25900.000			-33.154			-4.144
26001.000			-33.151			-4.144
26101.000			-33.148			-4.143
26201.000			-33.145			-4.143
26301.000			-33.143			-4.143
26400.000			-33.138			-4.142
26500.000			-33.134			-4.142
26601.000			-33.131			-4.141
26700.000			-33.129			-4.141
26800.000			-33.126			-4.141
26902.000			-33.124			-4.140
27001.000			-33.121			-4.140
27100.000			-33.116			-4.139
27201.000			-33.113			-4.139
27300.000			-33.111			-4.139
27400.000			-33.108			-4.138
27501.000			-33.106			-4.138
27601.000			-33.104			-4.138
27701.000			-33.101			-4.138
27801.000			-33.098			-4.137
27900.000			-33.093			-4.137
28000.000			-33.090			-4.136
28101.000			-33.088			-4.136
28200.000			-33.086			-4.136
28300.000			-33.084			-4.135
28402.000			-33.081			-4.135
28501.000			-33.078			-4.135
28600.000			-33.072			-4.134
28701.000			-33.070			-4.134
28800.000			-33.067			-4.133
28900.000			-33.065			-4.133
29001.000			-33.064			-4.133
29100.000			-33.061			-4.133
29202.000			-33.058			-4.132
29301.000			-33.054			-4.132
29400.000			-33.052			-4.131
29501.000			-33.049			-4.131
29600.000			-33.046			-4.131
29700.000			-33.043			-4.130
29801.000			-33.041			-4.130
29900.000			-33.039			-4.130
30001.000			-33.034			-4.129
30102.000			-33.033			-4.129
30200.000			-33.031			-4.129
30300.000			-33.028			-4.129
30401.000			-33.025			-4.128
30500.000			-33.022			-4.128
30600.000			-33.020			-4.127
30701.000			-33.017			-4.127
30801.000			-33.014			-4.127
30901.000			-33.013			-4.127
31001.000			-33.010			-4.126
31100.000			-33.007			-4.126
31200.000			-33.005			-4.126
31301.000			-33.003			-4.125
31400.000			-33.001			-4.125
31501.000			-32.997			-4.125
31602.000			-32.995			-4.124
31700.000			-32.992			-4.124
31800.000			-32.989			-4.124
31901.000			-32.988			-4.123
32000.000			-32.986			-4.123
32100.000			-32.983			-4.123
32201.000			-32.979			-4.122
32300.000			-32.976			-4.122
32402.000			-32.974			-4.122
32501.000			-32.972			-4.122
32600.000			-32.970			-4.121
32701.000			-32.968			-4.121
32800.000			-32.966			-4.121
32900.000			-32.963			-4.120
33001.000			-32.959			-4.120
33100.000			-32.958			-4.120
33201.000			-32.956			-4.119
33302.000			-32.953			-4.119
33400.000			-32.952			-4.119
33500.000			-32.950			-4.119
33601.000			-32.948			-4.118
33700.000			-32.943			-4.118
33800.000			-32.940			-4.118
33901.000			-32.940			-4.117
34001.000			-32.937			-4.117
34101.000			-32.934			-4.117
34201.000			-32.933			-4.117
34300.000			-32.931			-4.116
34400.000			-32.927			-4.116
34501.000			-32.924			-4.116
34600.000			-32.922			-4.115
34700.000			-32.920			-4.115
34802.000			-32.918			-4.115
34901.000			-32.917			-4.115
35000.000			-32.915			-4.114
35101.000			-32.910			-4.114
35200.000			-32.907			-4.113
35300.000			-32.906			-4.113
35401.000			-32.904			-4.113
35500.000			-32.902			-4.113
35602.000			-32.900			-4.113
35701.000			-32.899			-4.112
35800.000			-32.896			-4.112
35901.000			-32.892			-4.111
36000.000			-32.890			-4.111
36100.000			-32.889			-4.111
36201.000			-32.887			-4.111
36300.000			-32.885			-4.111
36401.000			-32.883			-4.110
36502.000			-32.881			-4.110
36600.000			-32.878			-4.110
36700.000			-32.876			-4.109
36801.000			-32.874			-4.109
36900.000			-32.871			-4.109
37000.000			-32.869			-4.109
37101.000			-32.868			-4.108
37201.000			-32.866			-4.108
37301.000			-32.862			-4.108
37401.000			-32.860			-4.107
37500.000			-32.858			-4.107
37600.000			-32.856			-4.107
37701.000			-32.855			-4.107
37800.000			-32.853			-4.107
37900.000			-32.851			-4.106
38002.000			-32.848			-4.106
38101.000			-32.846			-4.106
38200.000			-32.845			-4.106
38301.000			-32.843			-4.105
38400.000			-32.841			-4.105
38500.000			-32.838			-4.105
38601.000			-32.836			-4.105
38700.000			-32.834			-4.104
38802.000			-32.831			-4.104
38901.000			-32.829			-4.104
39001.000			-32.827			-4.103
39101.000			-32.827			-4.103
39200.000			-32.825			-4.103
39300.000			-32.823			-4.103
39401.000			-32.820			-4.103
39500.000			-32.817			-4.102
39600.000			-32.816			-4.102
39702.000			-32.813			-4.102
39801.000			-32.811			-4.101
39900.000			-32.810			-4.101
40001.000			-32.808			-4.101
40100.000			-32.806			-4.101
40200.000			-32.802			-4.100
40301.000			-32.801			-4.100
40401.000			-32.799			-4.100
40501.000			-32.797			-4.100
40602.000			-32.795			-4.099
40700.000			-32.794			-4.099
40800.000			-32.792			-4.099
40901.000			-32.789			-4.099
41000.000			-32.788			-4.098
41100.000			-32.786			-4.098
41202.000			-32.784			-4.098
41301.000			-32.781			-4.098
41401.000			-32.780			-4.097
41501.000			-32.778			-4.097
41600.000			-32.778			-4.097
41700.000			-32.773			-4.097
41801.000			-32.771			-4.096
41900.000			-32.770			-4.096
42001.000			-32.769			-4.096
42101.000			-32.767			-4.096
42201.000			-32.765			-4.096
42301.000			-32.764			-4.096
42400.000			-32.760			-4.095
42500.000			-32.758			-4.095
42601.000			-32.757			-4.095
42700.000			-32.755			-4.094
42801.000			-32.753			-4.094
42902.000			-32.752			-4.094
43001.000			-32.751			-4.094
43100.000			-32.748			-4.093
43201.000			-32.745			-4.093
43300.000			-32.743			-4.093
43400.000			-32.742			-4.093
43501.000			-32.742			-4.093
43601.000			-32.740			-4.092
43701.000			-32.737			-4.092
43801.000			-32.734			-4.092
43900.000			-32.733			-4.092
44000.000			-32.731			-4.091
44101.000			-32.729			-4.091
44200.000			-32.726			-4.091
44300.000			-32.725			-4.091
44402.000			-32.724			-4.090
44501.000			-32.723			-4.090
44600.000			-32.720			-4.090
44701.000			-32.717			-4.090
44800.000			-32.716			-4.089
44900.000			-32.714			-4.089
45001.000			-32.714			-4.089
45100.000			-32.712			-4.089
45202.000			-32.710			-4.089
45301.000			-32.707			-4.088
45400.000			-32.706			-4.088
45501.000			-32.704			-4.088
45600.000			-32.702			-4.088
45700.000			-32.701			-4.088
45801.000			-32.699			-4.087
45900.000			-32.698			-4.087
46001.000			-32.696			-4.087
46102.000			-32.693			-4.087
46200.000			-32.692			-4.087
46300.000			-32.691			-4.086
46401.000			-32.690			-4.086
46500.000			-32.689			-4.086
46600.000			-32.687			-4.086
46701.000			-32.686			-4.086
46801.000			-32.682			-4.085
46901.000			-32.681			-4.085
47001.000			-32.680			-4.085
47100.000			-32.678			-4.085
47200.000			-32.676			-4.085
47301.000			-32.674			-4.084
47400.000			-32.673			-4.084
47500.000			-32.671			-4.084
47602.000			-32.670			-4.084
47701.000			-32.667			-4.083
47800.000			-32.665			-4.083
47901.000			-32.664			-4.083
48000.000			-32.663			-4.083
48100.000			-32.661			-4.083
48201.000			-32.659			-4.082
48300.000			-32.657			-4.082
48402.000			-32.655			-4.082
48501.000			-32.653			-4.082
48601.000			-32.654			-4.082
48701.000			-32.653			-4.082
48800.000			-32.650			-4.081
48900.000			-32.648			-4.081
49001.000			-32.647			-4.081
49100.000			-32.645			-4.081
49200.000			-32.643			-4.080
49302.000			-32.640			-4.080
49401.000			-32.640			-4.080
49500.000			-32.638			-4.080
49601.000			-32.637			-4.080
49700.000			-32.634			-4.079
49800.000			-32.633			-4.079
49901.000			-32.633			-4.079
50000.000			-32.631			-4.079
50101.000			-32.629			-4.079
50202.000			-32.628			-4.078
50300.000			-32.627			-4.078
50400.000			-32.623			-4.078
50501.000			-32.622			-4.078
50600.000			-32.621			-4.078
50700.000			-32.621			-4.078
50802.000			-32.618			-4.077
50901.000			-32.616			-4.077
51000.000			-32.616			-4.077
51101.000			-32.614			-4.077
51200.000			-32.612			-4.076
51300.000			-32.611			-4.076
51401.000			-32.610			-4.076
51500.000			-32.608			-4.076
51602.000			-32.607			-4.076
51701.000			-32.605			-4.076
51800.000			-32.601			-4.075
51901.000			-32.600			-4.075
52000.000			-32.598			-4.075
52100.000			-32.597			-4.075
52201.000			-32.596			-4.074
52300.000			-32.595			-4.074
52401.000			-32.595			-4.074
52502.000			-32.593			-4.074
52600.000			-32.590			-4.074
52700.000			-32.588			-4.074
52801.000			-32.587			-4.073
52900.000			-32.586			-4.073
53000.000			-32.584			-4.073
53101.000			-32.582			-4.073
53201.000			-32.581			-4.073
53301.000			-32.580			-4.072
53401.000			-32.579			-4.072
53500.000			-32.577			-4.072
53600.000			-32.575			-4.072
53701.000			-32.575			-4.072
53800.000			-32.573			-4.072
53900.000			-32.571			-4.071
54002.000			-32.569			-4.071
54101.000			-32.568			-4.071
54200.000			-32.566			-4.071
54301.000			-32.566			-4.071
54400.000			-32.565			-4.071
54500.000			-32.563			-4.070
54601.000			-32.562			-4.070
54700.000			-32.559			-4.070
54802.000			-32.559			-4.070
54901.000			-32.558			-4.070
55000.000			-32.557			-4.070
55101.000			-32.555			-4.069
55200.000			-32.553			-4.069
55300.000			-32.551			-4.069
55401.000			-32.550			-4.069
55500.000			-32.547			-4.068
55601.000			-32.545			-4.068
55702.000			-32.545			-4.068
55800.000			-32.543			-4.068
55900.000			-32.544			-4.068
56001.000			-32.544			-4.068
56100.000			-32.542			-4.068
56200.000			-32.538			-4.067
56301.000			-32.537			-4.067
56401.000			-32.536			-4.067
56501.000			-32.535			-4.067
56601.000			-32.533			-4.067
56700.000			-32.531			-4.066
56800.000			-32.531			-4.066
56901.000			-32.527			-4.066
57000.000			-32.526			-4.066
57100.000			-32.525			-4.066
57202.000			-32.524			-4.065
57301.000			-32.521			-4.065
57400.000			-32.522			-4.065
57501.000			-32.521			-4.065
57600.000			-32.518			-4.065
57700.000			-32.517			-4.065
57801.000			-32.515			-4.064
57900.000			-32.515			-4.064
58002.000			-32.514			-4.064
58101.000			-32.511			-4.064
58200.000			-32.511			-4.064
58301.000			-32.510			-4.064
58400.000			-32.507			-4.063
58500.000			-32.506			-4.063
58601.000			-32.505			-4.063
58700.000			-32.504			-4.063
58801.000			-32.502			-4.063
58902.000			-32.502			-4.063
59000.000			-32.500			-4.062
59100.000			-32.497			-4.062
59201.000			-32.497			-4.062
59300.000			-32.495			-4.062
59400.000			-32.493			-4.062
59501.000			-32.492			-4.061
59601.000			-32.491			-4.061
59701.000			-32.490			-4.061
59801.000			-32.487			-4.061
59900.000			-32.487			-4.061
60000.000			-32.485			-4.061
60101.000			-32.485			-4.061
60200.000			-32.484			-4.060
60300.000			-32.482			-4.060
60402.000			-32.481			-4.060
60501.000			-32.478			-4.060
60601.000			-32.477			-4.060
60701.000			-32.476			-4.060
60800.000			-32.475			-4.059
60900.000			-32.474			-4.059
61001.000			-32.473			-4.059
61100.000			-32.472			-4.059
61201.000			-32.470			-4.059
61301.000			-32.469			-4.059
61401.000			-32.468			-4.058
61501.000			-32.466			-4.058
61600.000			-32.464			-4.058
61700.000			-32.463			-4.058
61801.000			-32.463			-4.058
61900.000			-32.460			-4.058
62000.000			-32.459			-4.057
62102.000			-32.458			-4.057
62201.000			-32.456			-4.057
62300.000			-32.455			-4.057
62401.000			-32.454			-4.057
62500.000			-32.453			-4.057
62600.000			-32.451			-4.056
62701.000			-32.450			-4.056
62800.000			-32.449			-4.056
62901.000			-32.447			-4.056
63002.000			-32.446			-4.056
63100.000			-32.446			-4.056
63200.000			-32.445			-4.056
63301.000			-32.444			-4.055
63400.000			-32.443			-4.055
63500.000			-32.441			-4.055
63601.000			-32.439			-4.055
63701.000			-32.437			-4.055
63801.000			-32.437			-4.055
63901.000			-32.436			-4.054
64000.000			-32.434			-4.054
64100.000			-32.434			-4.054
64201.000			-32.432			-4.054
64300.000			-32.431			-4.054
64401.000			-32.430			-4.054
64501.000			-32.429			-4.054
64601.000			-32.427			-4.053
64701.000			-32.426			-4.053
64800.000			-32.425			-4.053
64900.000			-32.423			-4.053
65001.000			-32.421			-4.053
65100.000			-32.420			-4.052
65201.000			-32.419			-4.052
65302.000			-32.419			-4.052
65401.000			-32.418			-4.052
65500.000			-32.417			-4.052
65601.000			-32.415			-4.052
65700.000			-32.414			-4.052
65800.000			-32.412			-4.052
65901.000			-32.410			-4.051
66001.000			-32.410			-4.051
66101.000			-32.409			-4.051
66201.000			-32.407			-4.051
66300.000			-32.406			-4.051
66400.000			-32.404			-4.050
66501.000			-32.402			-4.050
66600.000			-32.400			-4.050
66700.000			-32.399			-4.050
66802.000			-32.399			-4.050
66901.000			-32.399			-4.050
67001.000			-32.397			-4.050
67101.000			-32.395			-4.049
67200.000			-32.395			-4.049
67300.000			-32.394			-4.049
67401.000			-32.393			-4.049
67500.000			-32.392			-4.049
67601.000			-32.390			-4.049
67701.000			-32.388			-4.048
67801.000			-32.387			-4.048
67901.000			-32.386			-4.048
68000.000			-32.385			-4.048
68100.000			-32.385			-4.048
68201.000			-32.384			-4.048
68300.000			-32.382			-4.048
68400.000			-32.381			-4.048
68502.000			-32.379			-4.047
68601.000			-32.377			-4.047
68700.000			-32.376			-4.047
68801.000			-32.376			-4.047
