# Acquired on 08/01/2024 14:19:53 
# SPIDER: Creep_4mm_07714532B-2
# CREEP MEASUREMENT

# time [ms]		force [N]		stiffness [N/mm]
0.000			-11.876			-2.969
101.000			-12.879			-3.220
201.000			-13.267			-3.317
301.000			-13.274			-3.319
400.000			-13.210			-3.303
500.000			-13.160			-3.290
601.000			-13.088			-3.272
700.000			-13.059			-3.265
801.000			-13.035			-3.259
902.000			-13.012			-3.253
1000.000			-12.990			-3.248
1100.000			-12.972			-3.243
1201.000			-12.955			-3.239
1300.000			-12.925			-3.231
1400.000			-12.911			-3.228
1502.000			-12.898			-3.225
1601.000			-12.885			-3.221
1700.000			-12.874			-3.218
1800.000			-12.863			-3.216
1900.000			-12.853			-3.213
2001.000			-12.834			-3.209
2100.000			-12.825			-3.206
2200.000			-12.815			-3.204
2302.000			-12.807			-3.202
2401.000			-12.799			-3.200
2500.000			-12.792			-3.198
2601.000			-12.784			-3.196
2700.000			-12.770			-3.193
2800.000			-12.764			-3.191
2901.000			-12.758			-3.190
3000.000			-12.753			-3.188
3101.000			-12.746			-3.186
3202.000			-12.738			-3.185
3300.000			-12.732			-3.183
3400.000			-12.727			-3.182
3501.000			-12.718			-3.180
3600.000			-12.713			-3.178
3700.000			-12.707			-3.177
3802.000			-12.702			-3.175
3901.000			-12.697			-3.174
4000.000			-12.692			-3.173
4101.000			-12.688			-3.172
4200.000			-12.678			-3.170
4300.000			-12.675			-3.169
4401.000			-12.671			-3.168
4500.000			-12.666			-3.167
4601.000			-12.662			-3.165
4702.000			-12.657			-3.164
4800.000			-12.654			-3.164
4900.000			-12.647			-3.162
5000.000			-12.643			-3.161
5100.000			-12.640			-3.160
5201.000			-12.637			-3.159
5300.000			-12.632			-3.158
5401.000			-12.629			-3.157
5502.000			-12.626			-3.157
5600.000			-12.620			-3.155
5700.000			-12.616			-3.154
5801.000			-12.613			-3.153
5900.000			-12.611			-3.153
6000.000			-12.609			-3.152
6102.000			-12.606			-3.151
6201.000			-12.602			-3.151
6300.000			-12.599			-3.150
6401.000			-12.593			-3.148
6500.000			-12.589			-3.147
6600.000			-12.587			-3.147
6701.000			-12.585			-3.146
6800.000			-12.583			-3.146
6901.000			-12.579			-3.145
7002.000			-12.576			-3.144
7100.000			-12.571			-3.143
7200.000			-12.569			-3.142
7301.000			-12.566			-3.142
7400.000			-12.564			-3.141
7500.000			-12.561			-3.140
7601.000			-12.558			-3.140
7701.000			-12.556			-3.139
7801.000			-12.552			-3.138
7901.000			-12.550			-3.137
8000.000			-12.547			-3.137
8100.000			-12.544			-3.136
8200.000			-12.542			-3.135
8300.000			-12.539			-3.135
8401.000			-12.537			-3.134
8501.000			-12.535			-3.134
8601.000			-12.533			-3.133
8701.000			-12.530			-3.133
8800.000			-12.528			-3.132
8900.000			-12.526			-3.132
9001.000			-12.524			-3.131
9100.000			-12.522			-3.131
9201.000			-12.520			-3.130
9302.000			-12.516			-3.129
9400.000			-12.515			-3.129
9500.000			-12.512			-3.128
9601.000			-12.510			-3.128
9700.000			-12.509			-3.127
9800.000			-12.507			-3.127
9901.000			-12.505			-3.126
10001.000			-12.501			-3.125
10101.000			-12.500			-3.125
10201.000			-12.499			-3.125
10300.000			-12.497			-3.124
10400.000			-12.494			-3.123
10501.000			-12.492			-3.123
10600.000			-12.491			-3.123
10700.000			-12.488			-3.122
10802.000			-12.486			-3.122
10901.000			-12.484			-3.121
11000.000			-12.483			-3.121
11101.000			-12.481			-3.120
11200.000			-12.479			-3.120
11300.000			-12.478			-3.120
11400.000			-12.475			-3.119
11500.000			-12.473			-3.118
11602.000			-12.472			-3.118
11701.000			-12.470			-3.117
11800.000			-12.468			-3.117
11901.000			-12.467			-3.117
12000.000			-12.466			-3.117
12100.000			-12.464			-3.116
12201.000			-12.460			-3.115
12301.000			-12.460			-3.115
12401.000			-12.458			-3.115
12502.000			-12.456			-3.114
12600.000			-12.455			-3.114
12700.000			-12.453			-3.113
12801.000			-12.452			-3.113
12900.000			-12.450			-3.113
13000.000			-12.448			-3.112
13102.000			-12.447			-3.112
13201.000			-12.445			-3.111
13300.000			-12.445			-3.111
13401.000			-12.444			-3.111
13500.000			-12.443			-3.111
13600.000			-12.439			-3.110
13701.000			-12.438			-3.109
13800.000			-12.436			-3.109
13901.000			-12.436			-3.109
14002.000			-12.435			-3.109
14100.000			-12.433			-3.108
14200.000			-12.430			-3.108
14301.000			-12.428			-3.107
14400.000			-12.427			-3.107
14500.000			-12.427			-3.107
14600.000			-12.426			-3.106
14701.000			-12.424			-3.106
14802.000			-12.423			-3.106
14900.000			-12.421			-3.105
15000.000			-12.421			-3.105
15101.000			-12.418			-3.105
15200.000			-12.416			-3.104
15300.000			-12.416			-3.104
15401.000			-12.415			-3.104
15501.000			-12.413			-3.103
15601.000			-12.412			-3.103
15701.000			-12.410			-3.103
15800.000			-12.410			-3.102
15900.000			-12.409			-3.102
16001.000			-12.408			-3.102
16100.000			-12.406			-3.102
16200.000			-12.405			-3.101
16302.000			-12.405			-3.101
16401.000			-12.404			-3.101
16500.000			-12.401			-3.100
16601.000			-12.400			-3.100
16700.000			-12.399			-3.100
16800.000			-12.398			-3.099
16901.000			-12.397			-3.099
17001.000			-12.397			-3.099
17101.000			-12.395			-3.099
17202.000			-12.392			-3.098
17300.000			-12.391			-3.098
17400.000			-12.390			-3.097
17501.000			-12.389			-3.097
17600.000			-12.388			-3.097
17700.000			-12.386			-3.096
17800.000			-12.386			-3.097
17901.000			-12.385			-3.096
18002.000			-12.383			-3.096
18100.000			-12.382			-3.096
18200.000			-12.381			-3.095
18301.000			-12.381			-3.095
18400.000			-12.380			-3.095
18500.000			-12.378			-3.095
18601.000			-12.377			-3.094
18701.000			-12.376			-3.094
18801.000			-12.375			-3.094
18901.000			-12.375			-3.094
19000.000			-12.373			-3.093
19100.000			-12.372			-3.093
19201.000			-12.371			-3.093
19300.000			-12.369			-3.092
19400.000			-12.369			-3.092
19502.000			-12.367			-3.092
19601.000			-12.366			-3.092
19700.000			-12.365			-3.091
19801.000			-12.364			-3.091
19900.000			-12.363			-3.091
20000.000			-12.363			-3.091
20101.000			-12.361			-3.090
20200.000			-12.359			-3.090
20301.000			-12.359			-3.090
20402.000			-12.359			-3.090
20500.000			-12.357			-3.089
20600.000			-12.355			-3.089
20701.000			-12.356			-3.089
20800.000			-12.355			-3.089
20900.000			-12.354			-3.088
21000.000			-12.353			-3.088
21101.000			-12.352			-3.088
21202.000			-12.351			-3.088
21300.000			-12.350			-3.087
21400.000			-12.349			-3.087
21501.000			-12.348			-3.087
21600.000			-12.347			-3.087
21700.000			-12.347			-3.087
21802.000			-12.346			-3.086
21901.000			-12.343			-3.086
22000.000			-12.343			-3.086
22101.000			-12.343			-3.086
22200.000			-12.342			-3.085
22300.000			-12.340			-3.085
22401.000			-12.340			-3.085
22500.000			-12.340			-3.085
22601.000			-12.338			-3.084
22702.000			-12.336			-3.084
22800.000			-12.336			-3.084
22900.000			-12.335			-3.084
23001.000			-12.334			-3.083
23100.000			-12.333			-3.083
23200.000			-12.333			-3.083
23301.000			-12.332			-3.083
23401.000			-12.331			-3.083
23501.000			-12.331			-3.083
23601.000			-12.329			-3.082
23700.000			-12.329			-3.082
23800.000			-12.328			-3.082
23901.000			-12.327			-3.082
24000.000			-12.327			-3.082
24100.000			-12.325			-3.081
24202.000			-12.324			-3.081
24301.000			-12.324			-3.081
24401.000			-12.323			-3.081
24500.000			-12.323			-3.081
24600.000			-12.322			-3.080
24701.000			-12.320			-3.080
24800.000			-12.320			-3.080
24900.000			-12.320			-3.080
25002.000			-12.318			-3.079
25101.000			-12.317			-3.079
25200.000			-12.316			-3.079
25301.000			-12.315			-3.079
25400.000			-12.315			-3.079
25500.000			-12.314			-3.078
25601.000			-12.313			-3.078
25701.000			-12.313			-3.078
25801.000			-12.311			-3.078
25902.000			-12.310			-3.078
26000.000			-12.310			-3.077
26100.000			-12.309			-3.077
26201.000			-12.309			-3.077
26300.000			-12.309			-3.077
26400.000			-12.308			-3.077
26502.000			-12.307			-3.077
26601.000			-12.306			-3.077
26701.000			-12.304			-3.076
26801.000			-12.304			-3.076
26900.000			-12.303			-3.076
27000.000			-12.303			-3.076
27101.000			-12.302			-3.076
27200.000			-12.300			-3.075
27302.000			-12.299			-3.075
27401.000			-12.299			-3.075
27500.000			-12.299			-3.075
27601.000			-12.298			-3.074
27700.000			-12.298			-3.074
27800.000			-12.297			-3.074
27901.000			-12.297			-3.074
28000.000			-12.297			-3.074
28101.000			-12.295			-3.074
28202.000			-12.293			-3.073
28301.000			-12.293			-3.073
28400.000			-12.293			-3.073
28501.000			-12.293			-3.073
28600.000			-12.293			-3.073
28700.000			-12.291			-3.073
28801.000			-12.290			-3.073
28901.000			-12.290			-3.073
29001.000			-12.289			-3.072
29101.000			-12.287			-3.072
29200.000			-12.285			-3.071
29300.000			-12.286			-3.072
29401.000			-12.287			-3.072
29500.000			-12.285			-3.071
29600.000			-12.284			-3.071
29701.000			-12.284			-3.071
29801.000			-12.284			-3.071
29901.000			-12.283			-3.071
30001.000			-12.282			-3.070
30100.000			-12.281			-3.070
30200.000			-12.280			-3.070
30301.000			-12.280			-3.070
30400.000			-12.280			-3.070
30500.000			-12.279			-3.070
30602.000			-12.278			-3.070
30701.000			-12.277			-3.069
30801.000			-12.277			-3.069
30900.000			-12.276			-3.069
31000.000			-12.275			-3.069
31101.000			-12.275			-3.069
31200.000			-12.273			-3.068
31300.000			-12.272			-3.068
31402.000			-12.272			-3.068
31501.000			-12.272			-3.068
31600.000			-12.271			-3.068
31701.000			-12.270			-3.068
31800.000			-12.270			-3.067
31900.000			-12.269			-3.067
32001.000			-12.269			-3.067
32101.000			-12.269			-3.067
32201.000			-12.268			-3.067
32301.000			-12.267			-3.067
32400.000			-12.267			-3.067
32500.000			-12.266			-3.066
32601.000			-12.264			-3.066
32700.000			-12.265			-3.066
32800.000			-12.264			-3.066
32902.000			-12.263			-3.066
33001.000			-12.262			-3.066
33100.000			-12.262			-3.065
33201.000			-12.261			-3.065
33300.000			-12.261			-3.065
33400.000			-12.260			-3.065
33501.000			-12.259			-3.065
33600.000			-12.258			-3.064
33702.000			-12.258			-3.065
33801.000			-12.258			-3.064
33900.000			-12.256			-3.064
34001.000			-12.256			-3.064
34100.000			-12.256			-3.064
34200.000			-12.256			-3.064
34301.000			-12.254			-3.064
34400.000			-12.253			-3.063
34501.000			-12.255			-3.064
34602.000			-12.254			-3.064
34700.000			-12.253			-3.063
34800.000			-12.252			-3.063
34901.000			-12.252			-3.063
35000.000			-12.251			-3.063
35100.000			-12.250			-3.063
35201.000			-12.250			-3.062
35301.000			-12.250			-3.062
35401.000			-12.249			-3.062
35501.000			-12.247			-3.062
35600.000			-12.246			-3.062
35700.000			-12.246			-3.061
35801.000			-12.246			-3.061
35900.000			-12.245			-3.061
36000.000			-12.245			-3.061
36102.000			-12.244			-3.061
36201.000			-12.244			-3.061
36300.000			-12.243			-3.061
36401.000			-12.243			-3.061
36500.000			-12.244			-3.061
36600.000			-12.242			-3.060
36701.000			-12.241			-3.060
36801.000			-12.240			-3.060
36902.000			-12.240			-3.060
37000.000			-12.240			-3.060
37100.000			-12.240			-3.060
37201.000			-12.240			-3.060
37300.000			-12.239			-3.060
37400.000			-12.238			-3.060
37501.000			-12.238			-3.060
37601.000			-12.236			-3.059
37701.000			-12.235			-3.059
37801.000			-12.234			-3.059
37900.000			-12.235			-3.059
38000.000			-12.235			-3.059
38101.000			-12.235			-3.059
38200.000			-12.235			-3.059
38300.000			-12.234			-3.058
38402.000			-12.232			-3.058
38501.000			-12.232			-3.058
38600.000			-12.232			-3.058
38701.000			-12.232			-3.058
38800.000			-12.231			-3.058
38900.000			-12.231			-3.058
39001.000			-12.229			-3.057
39101.000			-12.229			-3.057
39201.000			-12.229			-3.057
39302.000			-12.228			-3.057
39400.000			-12.228			-3.057
39500.000			-12.228			-3.057
39601.000			-12.227			-3.057
39700.000			-12.225			-3.056
39800.000			-12.225			-3.056
39901.000			-12.224			-3.056
40001.000			-12.224			-3.056
40100.000			-12.224			-3.056
40200.000			-12.224			-3.056
40300.000			-12.223			-3.056
40401.000			-12.223			-3.056
40500.000			-12.222			-3.055
40600.000			-12.221			-3.055
40702.000			-12.220			-3.055
40801.000			-12.220			-3.055
40900.000			-12.220			-3.055
41001.000			-12.220			-3.055
41100.000			-12.220			-3.055
41200.000			-12.219			-3.055
41301.000			-12.218			-3.054
41400.000			-12.218			-3.054
41501.000			-12.217			-3.054
41602.000			-12.216			-3.054
41700.000			-12.216			-3.054
41800.000			-12.217			-3.054
41901.000			-12.216			-3.054
42000.000			-12.215			-3.054
42100.000			-12.214			-3.053
42202.000			-12.213			-3.053
42301.000			-12.213			-3.053
42400.000			-12.213			-3.053
42501.000			-12.213			-3.053
42600.000			-12.212			-3.053
42700.000			-12.212			-3.053
42801.000			-12.212			-3.053
42900.000			-12.211			-3.053
43001.000			-12.211			-3.053
43102.000			-12.209			-3.052
43200.000			-12.208			-3.052
43300.000			-12.208			-3.052
43400.000			-12.208			-3.052
43500.000			-12.209			-3.052
43601.000			-12.209			-3.052
43701.000			-12.207			-3.052
43801.000			-12.206			-3.052
43902.000			-12.206			-3.052
44000.000			-12.206			-3.052
44100.000			-12.205			-3.051
44201.000			-12.204			-3.051
44300.000			-12.203			-3.051
44400.000			-12.204			-3.051
44502.000			-12.204			-3.051
44601.000			-12.204			-3.051
44700.000			-12.203			-3.051
44801.000			-12.201			-3.050
44900.000			-12.200			-3.050
45000.000			-12.201			-3.050
45101.000			-12.201			-3.050
45200.000			-12.201			-3.050
45301.000			-12.200			-3.050
45402.000			-12.199			-3.050
45500.000			-12.199			-3.050
45600.000			-12.198			-3.049
45701.000			-12.198			-3.050
45800.000			-12.199			-3.050
45900.000			-12.198			-3.049
46001.000			-12.198			-3.049
46101.000			-12.196			-3.049
46201.000			-12.196			-3.049
46301.000			-12.195			-3.049
46400.000			-12.195			-3.049
46500.000			-12.196			-3.049
46600.000			-12.195			-3.049
46700.000			-12.194			-3.049
46801.000			-12.194			-3.048
46901.000			-12.194			-3.048
47001.000			-12.193			-3.048
47101.000			-12.193			-3.048
47200.000			-12.192			-3.048
47300.000			-12.192			-3.048
47401.000			-12.191			-3.048
47500.000			-12.191			-3.048
47600.000			-12.192			-3.048
47702.000			-12.190			-3.047
47801.000			-12.189			-3.047
47900.000			-12.188			-3.047
48001.000			-12.188			-3.047
48100.000			-12.189			-3.047
48200.000			-12.188			-3.047
48301.000			-12.187			-3.047
48400.000			-12.187			-3.047
48501.000			-12.187			-3.047
48602.000			-12.186			-3.046
48701.000			-12.185			-3.046
48800.000			-12.185			-3.046
48901.000			-12.184			-3.046
49000.000			-12.183			-3.046
49100.000			-12.183			-3.046
49201.000			-12.183			-3.046
49301.000			-12.184			-3.046
49401.000			-12.183			-3.046
49502.000			-12.182			-3.045
49600.000			-12.181			-3.045
49700.000			-12.180			-3.045
49800.000			-12.180			-3.045
49900.000			-12.181			-3.045
50001.000			-12.180			-3.045
50100.000			-12.180			-3.045
50201.000			-12.180			-3.045
50302.000			-12.179			-3.045
50400.000			-12.179			-3.045
50500.000			-12.178			-3.045
50601.000			-12.177			-3.044
50700.000			-12.176			-3.044
50800.000			-12.176			-3.044
50901.000			-12.177			-3.044
51001.000			-12.177			-3.044
51101.000			-12.176			-3.044
51201.000			-12.176			-3.044
51300.000			-12.175			-3.044
51400.000			-12.174			-3.044
51501.000			-12.174			-3.043
51600.000			-12.173			-3.043
51701.000			-12.173			-3.043
51802.000			-12.172			-3.043
51901.000			-12.173			-3.043
52000.000			-12.173			-3.043
52101.000			-12.171			-3.043
52200.000			-12.171			-3.043
52300.000			-12.172			-3.043
52401.000			-12.172			-3.043
52501.000			-12.172			-3.043
52601.000			-12.171			-3.043
52701.000			-12.170			-3.042
52800.000			-12.169			-3.042
52900.000			-12.169			-3.042
53000.000			-12.169			-3.042
53100.000			-12.168			-3.042
53201.000			-12.168			-3.042
53301.000			-12.168			-3.042
53401.000			-12.167			-3.042
53501.000			-12.166			-3.042
53600.000			-12.166			-3.042
53700.000			-12.164			-3.041
53801.000			-12.164			-3.041
53900.000			-12.165			-3.041
54000.000			-12.165			-3.041
54102.000			-12.164			-3.041
54201.000			-12.164			-3.041
54300.000			-12.164			-3.041
54401.000			-12.164			-3.041
54500.000			-12.163			-3.041
54600.000			-12.163			-3.041
54701.000			-12.162			-3.041
54800.000			-12.163			-3.041
54901.000			-12.162			-3.040
55002.000			-12.160			-3.040
55100.000			-12.160			-3.040
55200.000			-12.160			-3.040
55301.000			-12.159			-3.040
55400.000			-12.159			-3.040
55500.000			-12.159			-3.040
55601.000			-12.159			-3.040
55701.000			-12.158			-3.039
55801.000			-12.157			-3.039
55901.000			-12.157			-3.039
56000.000			-12.156			-3.039
56100.000			-12.157			-3.039
56200.000			-12.157			-3.039
56300.000			-12.157			-3.039
56401.000			-12.156			-3.039
56501.000			-12.156			-3.039
56601.000			-12.156			-3.039
56701.000			-12.154			-3.039
56800.000			-12.154			-3.039
56900.000			-12.154			-3.038
57001.000			-12.154			-3.038
57100.000			-12.154			-3.038
57200.000			-12.153			-3.038
57302.000			-12.152			-3.038
57401.000			-12.152			-3.038
57500.000			-12.152			-3.038
57601.000			-12.152			-3.038
57700.000			-12.153			-3.038
57800.000			-12.152			-3.038
57901.000			-12.151			-3.038
58001.000			-12.151			-3.038
58101.000			-12.151			-3.038
58202.000			-12.151			-3.038
58300.000			-12.149			-3.037
58400.000			-12.149			-3.037
58501.000			-12.149			-3.037
58600.000			-12.148			-3.037
58700.000			-12.148			-3.037
58802.000			-12.148			-3.037
58901.000			-12.148			-3.037
59001.000			-12.147			-3.037
59101.000			-12.146			-3.036
59200.000			-12.146			-3.037
59300.000			-12.146			-3.037
59400.000			-12.146			-3.037
59500.000			-12.146			-3.036
59601.000			-12.146			-3.036
59701.000			-12.146			-3.037
59801.000			-12.145			-3.036
59901.000			-12.145			-3.036
60000.000			-12.144			-3.036
60100.000			-12.143			-3.036
60201.000			-12.142			-3.036
60300.000			-12.142			-3.036
60400.000			-12.142			-3.036
60502.000			-12.142			-3.035
60601.000			-12.142			-3.035
60700.000			-12.141			-3.035
60801.000			-12.142			-3.035
60900.000			-12.141			-3.035
61000.000			-12.140			-3.035
61101.000			-12.140			-3.035
61201.000			-12.141			-3.035
61301.000			-12.141			-3.035
61401.000			-12.140			-3.035
61500.000			-12.139			-3.035
61600.000			-12.138			-3.035
61701.000			-12.138			-3.034
61800.000			-12.138			-3.034
61900.000			-12.138			-3.034
62002.000			-12.138			-3.035
62101.000			-12.137			-3.034
62200.000			-12.136			-3.034
62301.000			-12.136			-3.034
62400.000			-12.137			-3.034
62500.000			-12.136			-3.034
62600.000			-12.135			-3.034
62700.000			-12.135			-3.034
62802.000			-12.135			-3.034
62901.000			-12.134			-3.034
63000.000			-12.134			-3.034
63101.000			-12.134			-3.033
63200.000			-12.134			-3.033
63300.000			-12.133			-3.033
63401.000			-12.133			-3.033
63501.000			-12.132			-3.033
63601.000			-12.133			-3.033
63701.000			-12.132			-3.033
63800.000			-12.132			-3.033
63900.000			-12.131			-3.033
64001.000			-12.131			-3.033
64100.000			-12.130			-3.032
64200.000			-12.130			-3.033
64302.000			-12.131			-3.033
64401.000			-12.130			-3.032
64500.000			-12.130			-3.032
64601.000			-12.130			-3.032
64700.000			-12.129			-3.032
64800.000			-12.130			-3.033
64901.000			-12.129			-3.032
65000.000			-12.128			-3.032
65101.000			-12.127			-3.032
65202.000			-12.127			-3.032
65300.000			-12.126			-3.032
65400.000			-12.126			-3.032
65501.000			-12.126			-3.032
65600.000			-12.126			-3.031
65700.000			-12.125			-3.031
65800.000			-12.125			-3.031
65901.000			-12.124			-3.031
66002.000			-12.125			-3.031
66100.000			-12.125			-3.031
66200.000			-12.124			-3.031
66301.000			-12.124			-3.031
66400.000			-12.125			-3.031
66500.000			-12.124			-3.031
66601.000			-12.122			-3.031
66701.000			-12.122			-3.031
66801.000			-12.122			-3.030
66901.000			-12.123			-3.031
67000.000			-12.123			-3.031
67100.000			-12.122			-3.031
67201.000			-12.121			-3.030
67300.000			-12.121			-3.030
67401.000			-12.121			-3.030
67502.000			-12.121			-3.030
67601.000			-12.120			-3.030
67700.000			-12.119			-3.030
67801.000			-12.119			-3.030
67900.000			-12.120			-3.030
68000.000			-12.118			-3.030
68101.000			-12.118			-3.030
68200.000			-12.119			-3.030
68301.000			-12.118			-3.029
68402.000			-12.118			-3.030
68500.000			-12.119			-3.030
68600.000			-12.119			-3.030
68701.000			-12.116			-3.029
68800.000			-12.116			-3.029
