# Acquired on 21/12/2023 15:11:34 
# SPIDER: Creep_-9mm_07714532B-1
# CREEP MEASUREMENT

# time [ms]		force [N]		stiffness [N/mm]
1.000			40.034			-4.448
101.000			41.639			-4.627
200.000			42.143			-4.683
300.000			41.995			-4.666
400.000			41.788			-4.643
500.000			41.626			-4.625
602.000			41.492			-4.610
701.000			41.275			-4.586
800.000			41.184			-4.576
901.000			41.103			-4.567
1000.000			41.027			-4.559
1100.000			40.960			-4.551
1201.000			40.898			-4.544
1301.000			40.839			-4.538
1401.000			40.733			-4.526
1501.000			40.685			-4.521
1600.000			40.639			-4.515
1700.000			40.595			-4.511
1801.000			40.554			-4.506
1900.000			40.515			-4.502
2000.000			40.478			-4.498
2102.000			40.441			-4.493
2201.000			40.375			-4.486
2300.000			40.343			-4.483
2401.000			40.313			-4.479
2500.000			40.284			-4.476
2600.000			40.255			-4.473
2701.000			40.228			-4.470
2801.000			40.201			-4.467
2901.000			40.152			-4.461
3001.000			40.127			-4.459
3100.000			40.103			-4.456
3200.000			40.080			-4.453
3301.000			40.059			-4.451
3400.000			40.037			-4.449
3500.000			40.016			-4.446
3602.000			39.976			-4.442
3701.000			39.957			-4.440
3801.000			39.937			-4.437
3900.000			39.919			-4.435
4000.000			39.901			-4.433
4101.000			39.884			-4.432
4200.000			39.867			-4.430
4300.000			39.849			-4.428
4402.000			39.817			-4.424
4501.000			39.801			-4.422
4600.000			39.785			-4.421
4701.000			39.770			-4.419
4800.000			39.755			-4.417
4900.000			39.740			-4.416
5001.000			39.725			-4.414
5101.000			39.698			-4.411
5201.000			39.684			-4.409
5302.000			39.670			-4.408
5400.000			39.657			-4.406
5500.000			39.645			-4.405
5601.000			39.633			-4.404
5700.000			39.620			-4.402
5800.000			39.607			-4.401
5902.000			39.582			-4.398
6001.000			39.570			-4.397
6100.000			39.559			-4.395
6201.000			39.548			-4.394
6300.000			39.536			-4.393
6400.000			39.524			-4.392
6501.000			39.513			-4.390
6600.000			39.491			-4.388
6702.000			39.481			-4.387
6801.000			39.472			-4.386
6900.000			39.461			-4.385
7001.000			39.450			-4.383
7100.000			39.441			-4.382
7200.000			39.432			-4.381
7301.000			39.412			-4.379
7400.000			39.403			-4.378
7501.000			39.393			-4.377
7602.000			39.383			-4.376
7700.000			39.375			-4.375
7800.000			39.366			-4.374
7901.000			39.357			-4.373
8000.000			39.347			-4.372
8100.000			39.330			-4.370
8201.000			39.321			-4.369
8301.000			39.312			-4.368
8401.000			39.304			-4.367
8501.000			39.295			-4.366
8600.000			39.288			-4.365
8700.000			39.279			-4.364
8801.000			39.263			-4.363
8900.000			39.256			-4.362
9000.000			39.249			-4.361
9102.000			39.240			-4.360
9201.000			39.233			-4.359
9300.000			39.225			-4.358
9401.000			39.216			-4.357
9500.000			39.203			-4.356
9600.000			39.196			-4.355
9701.000			39.189			-4.354
9800.000			39.181			-4.353
9902.000			39.173			-4.353
10001.000			39.166			-4.352
10100.000			39.159			-4.351
10201.000			39.152			-4.350
10300.000			39.140			-4.349
10400.000			39.133			-4.348
10501.000			39.125			-4.347
10600.000			39.118			-4.346
10701.000			39.113			-4.346
10802.000			39.107			-4.345
10900.000			39.100			-4.344
11000.000			39.087			-4.343
11101.000			39.081			-4.342
11200.000			39.074			-4.342
11300.000			39.066			-4.341
11402.000			39.061			-4.340
11501.000			39.055			-4.339
11601.000			39.050			-4.339
11701.000			39.039			-4.338
11800.000			39.032			-4.337
11900.000			39.025			-4.336
12001.000			39.019			-4.335
12100.000			39.015			-4.335
12201.000			39.009			-4.334
12302.000			39.003			-4.334
12400.000			38.998			-4.333
12500.000			38.986			-4.332
12601.000			38.980			-4.331
12700.000			38.975			-4.331
12800.000			38.969			-4.330
12901.000			38.964			-4.329
13000.000			38.958			-4.329
13102.000			38.953			-4.328
13201.000			38.943			-4.327
13300.000			38.938			-4.326
13401.000			38.932			-4.326
13500.000			38.928			-4.325
13600.000			38.922			-4.325
13701.000			38.916			-4.324
13800.000			38.912			-4.324
13901.000			38.903			-4.323
14002.000			38.898			-4.322
14100.000			38.893			-4.321
14200.000			38.888			-4.321
14301.000			38.883			-4.320
14400.000			38.878			-4.320
14500.000			38.873			-4.319
14601.000			38.868			-4.319
14701.000			38.859			-4.318
14801.000			38.855			-4.317
14901.000			38.850			-4.317
15000.000			38.845			-4.316
15100.000			38.841			-4.316
15201.000			38.836			-4.315
15300.000			38.831			-4.315
15400.000			38.823			-4.314
15501.000			38.818			-4.313
15601.000			38.813			-4.313
15701.000			38.809			-4.312
15801.000			38.805			-4.312
15900.000			38.801			-4.311
16000.000			38.797			-4.311
16101.000			38.788			-4.310
16200.000			38.784			-4.309
16300.000			38.780			-4.309
16402.000			38.776			-4.308
16501.000			38.771			-4.308
16601.000			38.767			-4.307
16700.000			38.764			-4.307
16800.000			38.758			-4.306
16901.000			38.751			-4.306
17000.000			38.746			-4.305
17100.000			38.743			-4.305
17202.000			38.739			-4.304
17301.000			38.734			-4.304
17400.000			38.730			-4.303
17501.000			38.726			-4.303
17600.000			38.718			-4.302
17700.000			38.715			-4.302
17801.000			38.711			-4.301
17900.000			38.706			-4.301
18001.000			38.703			-4.300
18102.000			38.700			-4.300
18200.000			38.696			-4.300
18300.000			38.689			-4.299
18401.000			38.685			-4.298
18500.000			38.681			-4.298
18600.000			38.677			-4.297
18701.000			38.674			-4.297
18801.000			38.671			-4.297
18901.000			38.667			-4.296
19001.000			38.664			-4.296
19100.000			38.656			-4.295
19200.000			38.652			-4.295
19301.000			38.649			-4.294
19400.000			38.645			-4.294
19500.000			38.642			-4.294
19602.000			38.639			-4.293
19701.000			38.635			-4.293
19802.000			38.628			-4.292
19900.000			38.625			-4.292
20000.000			38.622			-4.291
20101.000			38.617			-4.291
20200.000			38.615			-4.291
20300.000			38.611			-4.290
20401.000			38.607			-4.290
20501.000			38.602			-4.289
20601.000			38.599			-4.289
20701.000			38.594			-4.288
20800.000			38.591			-4.288
20900.000			38.588			-4.288
21001.000			38.585			-4.287
21100.000			38.581			-4.287
21200.000			38.580			-4.287
21302.000			38.573			-4.286
21401.000			38.569			-4.285
21500.000			38.566			-4.285
21601.000			38.563			-4.285
21700.000			38.559			-4.284
21800.000			38.556			-4.284
21901.000			38.553			-4.284
22000.000			38.548			-4.283
22101.000			38.544			-4.283
22202.000			38.541			-4.282
22300.000			38.538			-4.282
22400.000			38.536			-4.282
22501.000			38.533			-4.281
22600.000			38.530			-4.281
22700.000			38.527			-4.281
22802.000			38.521			-4.280
22901.000			38.518			-4.280
23002.000			38.515			-4.279
23100.000			38.512			-4.279
23200.000			38.509			-4.279
23301.000			38.506			-4.278
23400.000			38.504			-4.278
23500.000			38.497			-4.277
23602.000			38.495			-4.277
23701.000			38.492			-4.277
23801.000			38.489			-4.277
23901.000			38.486			-4.276
24000.000			38.483			-4.276
24100.000			38.481			-4.276
24201.000			38.474			-4.275
24300.000			38.471			-4.275
24400.000			38.469			-4.274
24502.000			38.466			-4.274
24601.000			38.462			-4.274
24700.000			38.460			-4.273
24801.000			38.459			-4.273
24900.000			38.456			-4.273
25000.000			38.451			-4.272
25101.000			38.447			-4.272
25200.000			38.445			-4.272
25301.000			38.442			-4.271
25402.000			38.439			-4.271
25500.000			38.436			-4.271
25600.000			38.434			-4.270
25701.000			38.429			-4.270
25800.000			38.426			-4.270
25900.000			38.424			-4.269
26000.000			38.422			-4.269
26101.000			38.419			-4.269
26202.000			38.417			-4.269
26300.000			38.414			-4.268
26400.000			38.409			-4.268
26501.000			38.405			-4.267
26600.000			38.402			-4.267
26700.000			38.401			-4.267
26801.000			38.400			-4.267
26901.000			38.396			-4.266
27001.000			38.393			-4.266
27101.000			38.391			-4.266
27200.000			38.385			-4.265
27300.000			38.381			-4.265
27401.000			38.380			-4.264
27500.000			38.378			-4.264
27600.000			38.376			-4.264
27702.000			38.374			-4.264
27801.000			38.372			-4.264
27900.000			38.368			-4.263
28001.000			38.365			-4.263
28100.000			38.362			-4.262
28200.000			38.360			-4.262
28301.000			38.358			-4.262
28400.000			38.355			-4.262
28501.000			38.352			-4.261
28602.000			38.348			-4.261
28701.000			38.347			-4.261
28800.000			38.344			-4.260
28901.000			38.341			-4.260
29000.000			38.339			-4.260
29100.000			38.338			-4.260
29200.000			38.334			-4.259
29300.000			38.332			-4.259
29402.000			38.327			-4.259
29501.000			38.325			-4.258
29600.000			38.323			-4.258
29701.000			38.321			-4.258
29800.000			38.318			-4.258
29900.000			38.317			-4.257
30001.000			38.315			-4.257
30100.000			38.310			-4.257
30201.000			38.308			-4.256
30302.000			38.305			-4.256
30400.000			38.302			-4.256
30500.000			38.300			-4.256
30601.000			38.298			-4.255
30700.000			38.296			-4.255
30800.000			38.293			-4.255
30902.000			38.289			-4.254
31001.000			38.287			-4.254
31100.000			38.286			-4.254
31201.000			38.284			-4.254
31300.000			38.282			-4.254
31400.000			38.279			-4.253
31501.000			38.277			-4.253
31600.000			38.272			-4.252
31701.000			38.270			-4.252
31802.000			38.269			-4.252
31901.000			38.268			-4.252
32000.000			38.266			-4.252
32101.000			38.263			-4.251
32200.000			38.260			-4.251
32300.000			38.257			-4.251
32400.000			38.255			-4.251
32501.000			38.253			-4.250
32602.000			38.250			-4.250
32700.000			38.248			-4.250
32800.000			38.247			-4.250
32901.000			38.245			-4.249
33000.000			38.241			-4.249
33100.000			38.239			-4.249
33201.000			38.237			-4.249
33301.000			38.235			-4.248
33401.000			38.233			-4.248
33501.000			38.230			-4.248
33600.000			38.229			-4.248
33700.000			38.227			-4.247
33801.000			38.222			-4.247
33900.000			38.219			-4.247
34000.000			38.218			-4.246
34102.000			38.217			-4.246
34201.000			38.214			-4.246
34300.000			38.213			-4.246
34401.000			38.211			-4.246
34500.000			38.206			-4.245
34600.000			38.205			-4.245
34701.000			38.203			-4.245
34800.000			38.202			-4.245
34901.000			38.200			-4.244
35002.000			38.198			-4.244
35100.000			38.196			-4.244
35200.000			38.192			-4.244
35301.000			38.190			-4.243
35400.000			38.188			-4.243
35500.000			38.187			-4.243
35600.000			38.185			-4.243
35701.000			38.183			-4.243
35802.000			38.181			-4.242
35901.000			38.179			-4.242
36000.000			38.176			-4.242
36101.000			38.174			-4.242
36200.000			38.171			-4.241
36300.000			38.170			-4.241
36401.000			38.169			-4.241
36501.000			38.167			-4.241
36601.000			38.165			-4.241
36702.000			38.161			-4.240
36800.000			38.159			-4.240
36900.000			38.158			-4.240
37001.000			38.156			-4.240
37100.000			38.155			-4.239
37200.000			38.152			-4.239
37301.000			38.150			-4.239
37401.000			38.149			-4.239
37501.000			38.145			-4.238
37601.000			38.143			-4.238
37700.000			38.141			-4.238
37800.000			38.139			-4.238
37901.000			38.137			-4.237
38000.000			38.135			-4.237
38100.000			38.134			-4.237
38202.000			38.131			-4.237
38301.000			38.128			-4.236
38400.000			38.127			-4.236
38501.000			38.127			-4.236
38600.000			38.124			-4.236
38700.000			38.122			-4.236
38800.000			38.121			-4.236
38900.000			38.117			-4.235
39002.000			38.115			-4.235
39101.000			38.113			-4.235
39200.000			38.113			-4.235
39301.000			38.111			-4.235
39400.000			38.108			-4.234
39500.000			38.107			-4.234
39601.000			38.106			-4.234
39700.000			38.102			-4.234
39801.000			38.101			-4.233
39902.000			38.098			-4.233
40000.000			38.097			-4.233
40100.000			38.097			-4.233
40201.000			38.093			-4.233
40300.000			38.092			-4.232
40400.000			38.090			-4.232
40501.000			38.088			-4.232
40601.000			38.087			-4.232
40701.000			38.085			-4.232
40801.000			38.083			-4.231
40900.000			38.081			-4.231
41000.000			38.080			-4.231
41101.000			38.077			-4.231
41200.000			38.076			-4.231
41300.000			38.074			-4.230
41402.000			38.074			-4.230
41501.000			38.071			-4.230
41600.000			38.068			-4.230
41701.000			38.067			-4.230
41800.000			38.065			-4.229
41900.000			38.063			-4.229
42000.000			38.061			-4.229
42100.000			38.060			-4.229
42202.000			38.057			-4.229
42301.000			38.056			-4.228
42400.000			38.054			-4.228
42501.000			38.051			-4.228
42600.000			38.049			-4.228
42700.000			38.048			-4.228
42801.000			38.046			-4.227
42900.000			38.045			-4.227
43001.000			38.044			-4.227
43102.000			38.042			-4.227
43200.000			38.041			-4.227
43300.000			38.038			-4.226
43401.000			38.036			-4.226
43500.000			38.035			-4.226
43600.000			38.034			-4.226
43702.000			38.032			-4.226
43801.000			38.031			-4.226
43901.000			38.030			-4.226
44001.000			38.027			-4.225
44100.000			38.023			-4.225
44200.000			38.023			-4.225
44301.000			38.021			-4.225
44400.000			38.019			-4.224
44501.000			38.018			-4.224
44602.000			38.018			-4.224
44700.000			38.016			-4.224
44800.000			38.013			-4.224
44901.000			38.012			-4.224
45000.000			38.010			-4.223
45100.000			38.008			-4.223
45200.000			38.006			-4.223
45301.000			38.006			-4.223
45402.000			38.005			-4.223
45500.000			38.001			-4.222
45600.000			38.001			-4.222
45701.000			37.999			-4.222
45800.000			37.997			-4.222
45900.000			37.995			-4.222
46001.000			37.993			-4.221
46101.000			37.991			-4.221
46201.000			37.990			-4.221
46301.000			37.988			-4.221
46400.000			37.987			-4.221
46500.000			37.985			-4.221
46601.000			37.983			-4.220
46700.000			37.982			-4.220
46800.000			37.982			-4.220
46901.000			37.979			-4.220
47001.000			37.977			-4.220
47101.000			37.975			-4.219
47201.000			37.973			-4.219
47300.000			37.973			-4.219
47400.000			37.971			-4.219
47501.000			37.970			-4.219
47600.000			37.968			-4.219
47700.000			37.965			-4.218
47802.000			37.964			-4.218
47901.000			37.963			-4.218
48000.000			37.962			-4.218
48101.000			37.960			-4.218
48200.000			37.958			-4.218
48300.000			37.957			-4.217
48400.000			37.956			-4.217
48500.000			37.953			-4.217
48602.000			37.952			-4.217
48701.000			37.951			-4.217
48801.000			37.950			-4.217
48901.000			37.948			-4.216
49000.000			37.947			-4.216
49100.000			37.945			-4.216
49201.000			37.942			-4.216
49300.000			37.941			-4.216
49400.000			37.939			-4.215
49502.000			37.938			-4.215
49601.000			37.937			-4.215
49700.000			37.935			-4.215
49801.000			37.933			-4.215
49900.000			37.933			-4.215
50000.000			37.931			-4.215
50101.000			37.929			-4.214
50200.000			37.928			-4.214
50301.000			37.926			-4.214
50402.000			37.925			-4.214
50500.000			37.923			-4.214
50600.000			37.922			-4.214
50701.000			37.920			-4.213
50800.000			37.918			-4.213
50900.000			37.917			-4.213
51001.000			37.916			-4.213
51101.000			37.914			-4.213
51201.000			37.913			-4.213
51301.000			37.914			-4.213
51400.000			37.910			-4.212
51500.000			37.908			-4.212
51600.000			37.909			-4.212
51700.000			37.907			-4.212
51801.000			37.904			-4.212
51901.000			37.902			-4.211
52001.000			37.902			-4.211
52102.000			37.900			-4.211
52200.000			37.899			-4.211
52300.000			37.898			-4.211
52401.000			37.896			-4.211
52500.000			37.894			-4.210
52600.000			37.894			-4.210
52701.000			37.892			-4.210
52801.000			37.891			-4.210
52901.000			37.888			-4.210
53001.000			37.886			-4.210
53100.000			37.886			-4.210
53200.000			37.885			-4.209
53301.000			37.883			-4.209
53400.000			37.881			-4.209
53500.000			37.879			-4.209
53602.000			37.880			-4.209
53701.000			37.878			-4.209
53800.000			37.876			-4.208
53901.000			37.875			-4.208
54000.000			37.874			-4.208
54100.000			37.872			-4.208
54201.000			37.871			-4.208
54300.000			37.870			-4.208
54401.000			37.867			-4.207
54502.000			37.866			-4.207
54600.000			37.866			-4.207
54700.000			37.865			-4.207
54800.000			37.863			-4.207
54900.000			37.862			-4.207
55001.000			37.861			-4.207
55100.000			37.859			-4.207
55200.000			37.857			-4.206
55302.000			37.855			-4.206
55401.000			37.855			-4.206
55500.000			37.853			-4.206
55601.000			37.853			-4.206
55700.000			37.852			-4.206
55800.000			37.848			-4.205
55901.000			37.847			-4.205
56000.000			37.847			-4.205
56101.000			37.845			-4.205
56202.000			37.844			-4.205
56300.000			37.844			-4.205
56400.000			37.842			-4.205
56501.000			37.842			-4.205
56600.000			37.838			-4.204
56700.000			37.837			-4.204
56801.000			37.835			-4.204
56901.000			37.835			-4.204
57001.000			37.834			-4.204
57101.000			37.833			-4.204
57200.000			37.832			-4.204
57300.000			37.829			-4.203
57401.000			37.828			-4.203
57500.000			37.827			-4.203
57600.000			37.826			-4.203
57702.000			37.824			-4.203
57801.000			37.823			-4.203
57902.000			37.822			-4.202
58000.000			37.820			-4.202
58100.000			37.820			-4.202
58201.000			37.818			-4.202
58300.000			37.817			-4.202
58400.000			37.816			-4.202
58501.000			37.815			-4.202
58601.000			37.814			-4.202
58701.000			37.812			-4.201
58801.000			37.810			-4.201
58900.000			37.810			-4.201
59000.000			37.809			-4.201
59101.000			37.807			-4.201
59200.000			37.807			-4.201
59300.000			37.805			-4.201
59402.000			37.803			-4.200
59501.000			37.801			-4.200
59600.000			37.800			-4.200
59701.000			37.799			-4.200
59800.000			37.798			-4.200
59900.000			37.796			-4.200
60001.000			37.795			-4.199
60100.000			37.794			-4.199
60201.000			37.792			-4.199
60302.000			37.792			-4.199
60400.000			37.791			-4.199
60500.000			37.789			-4.199
60601.000			37.788			-4.199
60700.000			37.786			-4.198
60800.000			37.785			-4.198
60901.000			37.785			-4.198
61000.000			37.783			-4.198
61102.000			37.782			-4.198
61201.000			37.781			-4.198
61300.000			37.780			-4.198
61401.000			37.779			-4.198
61500.000			37.777			-4.197
61600.000			37.776			-4.197
61701.000			37.774			-4.197
61800.000			37.772			-4.197
61901.000			37.771			-4.197
62002.000			37.771			-4.197
62100.000			37.769			-4.197
62200.000			37.768			-4.196
62301.000			37.767			-4.196
62400.000			37.767			-4.196
62500.000			37.765			-4.196
62601.000			37.764			-4.196
62701.000			37.763			-4.196
62801.000			37.762			-4.196
62901.000			37.761			-4.196
63000.000			37.761			-4.196
63100.000			37.760			-4.196
63201.000			37.756			-4.195
63300.000			37.755			-4.195
63400.000			37.755			-4.195
63502.000			37.753			-4.195
63601.000			37.753			-4.195
63700.000			37.753			-4.195
63801.000			37.751			-4.195
63900.000			37.749			-4.194
64000.000			37.748			-4.194
64101.000			37.747			-4.194
64200.000			37.746			-4.194
64302.000			37.745			-4.194
64401.000			37.743			-4.194
64500.000			37.743			-4.194
64601.000			37.741			-4.193
64700.000			37.740			-4.193
64800.000			37.739			-4.193
64901.000			37.737			-4.193
65000.000			37.736			-4.193
65100.000			37.735			-4.193
65202.000			37.734			-4.193
65301.000			37.733			-4.193
65400.000			37.732			-4.192
65501.000			37.730			-4.192
65600.000			37.729			-4.192
65700.000			37.728			-4.192
65801.000			37.728			-4.192
65900.000			37.726			-4.192
66001.000			37.725			-4.192
66102.000			37.723			-4.191
66200.000			37.722			-4.191
66300.000			37.721			-4.191
66401.000			37.720			-4.191
66500.000			37.719			-4.191
66600.000			37.717			-4.191
66701.000			37.717			-4.191
66801.000			37.715			-4.191
66901.000			37.715			-4.191
67001.000			37.713			-4.190
67100.000			37.713			-4.190
67200.000			37.712			-4.190
67301.000			37.711			-4.190
67400.000			37.710			-4.190
67500.000			37.709			-4.190
67602.000			37.707			-4.190
67701.000			37.706			-4.190
67801.000			37.705			-4.189
67900.000			37.704			-4.189
68000.000			37.703			-4.189
68101.000			37.702			-4.189
68200.000			37.701			-4.189
68300.000			37.699			-4.189
68401.000			37.698			-4.189
68501.000			37.697			-4.189
68601.000			37.696			-4.188
68701.000			37.695			-4.188
68800.000			37.695			-4.188
68900.000			37.693			-4.188
69001.000			37.690			-4.188
69100.000			37.689			-4.188
69200.000			37.688			-4.188
69302.000			37.688			-4.188
69401.000			37.687			-4.187
69501.000			37.686			-4.187
69601.000			37.685			-4.187
69700.000			37.685			-4.187
69800.000			37.682			-4.187
69901.000			37.681			-4.187
70000.000			37.681			-4.187
70100.000			37.679			-4.187
70202.000			37.678			-4.186
70301.000			37.677			-4.186
70400.000			37.677			-4.186
70501.000			37.674			-4.186
70600.000			37.674			-4.186
70700.000			37.673			-4.186
70800.000			37.673			-4.186
70900.000			37.673			-4.186
71002.000			37.670			-4.186
71101.000			37.669			-4.185
71201.000			37.669			-4.185
