# Acquired on 26/01/2024 10:19:13 
# SPIDER: Creep_8mm_GRPCNT1454A-1
# CREEP MEASUREMENT

# time [ms]		force [N]		stiffness [N/mm]
1.000			-24.166			-3.021
104.000			-24.823			-3.103
205.000			-24.958			-3.120
304.000			-24.631			-3.079
403.000			-24.496			-3.062
505.000			-24.383			-3.048
604.000			-24.286			-3.036
704.000			-24.200			-3.025
805.000			-24.123			-3.015
904.000			-24.054			-3.007
1004.000			-23.936			-2.992
1105.000			-23.883			-2.985
1204.000			-23.832			-2.979
1304.000			-23.785			-2.973
1404.000			-23.741			-2.968
1504.000			-23.701			-2.963
1603.000			-23.661			-2.958
1704.000			-23.625			-2.953
1804.000			-23.558			-2.945
1905.000			-23.528			-2.941
2004.000			-23.499			-2.937
2104.000			-23.470			-2.934
2205.000			-23.442			-2.930
2303.000			-23.416			-2.927
2404.000			-23.390			-2.924
2505.000			-23.342			-2.918
2604.000			-23.319			-2.915
2704.000			-23.298			-2.912
2804.000			-23.277			-2.910
2904.000			-23.256			-2.907
3004.000			-23.236			-2.904
3105.000			-23.217			-2.902
3204.000			-23.180			-2.898
3304.000			-23.162			-2.895
3405.000			-23.145			-2.893
3503.000			-23.127			-2.891
3604.000			-23.111			-2.889
3705.000			-23.095			-2.887
3804.000			-23.080			-2.885
3904.000			-23.050			-2.881
4004.000			-23.036			-2.880
4104.000			-23.022			-2.878
4204.000			-23.008			-2.876
4305.000			-22.993			-2.874
4404.000			-22.981			-2.873
4504.000			-22.967			-2.871
4605.000			-22.954			-2.869
4703.000			-22.929			-2.866
4805.000			-22.917			-2.865
4904.000			-22.906			-2.863
5004.000			-22.895			-2.862
5105.000			-22.883			-2.860
5203.000			-22.872			-2.859
5304.000			-22.861			-2.858
5405.000			-22.840			-2.855
5504.000			-22.829			-2.854
5604.000			-22.819			-2.852
5705.000			-22.808			-2.851
5804.000			-22.800			-2.850
5903.000			-22.791			-2.849
6005.000			-22.780			-2.847
6104.000			-22.762			-2.845
6204.000			-22.752			-2.844
6305.000			-22.743			-2.843
6404.000			-22.734			-2.842
6504.000			-22.725			-2.841
6604.000			-22.716			-2.840
6704.000			-22.707			-2.838
6804.000			-22.699			-2.837
6905.000			-22.682			-2.835
7004.000			-22.675			-2.834
7103.000			-22.667			-2.833
7205.000			-22.659			-2.832
7304.000			-22.651			-2.831
7404.000			-22.644			-2.831
7505.000			-22.636			-2.830
7604.000			-22.621			-2.828
7704.000			-22.614			-2.827
7803.000			-22.607			-2.826
7904.000			-22.600			-2.825
8005.000			-22.592			-2.824
8104.000			-22.585			-2.823
8204.000			-22.577			-2.822
8304.000			-22.565			-2.821
8404.000			-22.559			-2.820
8504.000			-22.552			-2.819
8605.000			-22.545			-2.818
8704.000			-22.538			-2.817
8804.000			-22.531			-2.816
8905.000			-22.525			-2.816
9003.000			-22.520			-2.815
9104.000			-22.507			-2.813
9205.000			-22.502			-2.813
9304.000			-22.495			-2.812
9404.000			-22.488			-2.811
9505.000			-22.483			-2.810
9604.000			-22.477			-2.810
9703.000			-22.471			-2.809
9805.000			-22.459			-2.807
9904.000			-22.453			-2.807
10004.000			-22.448			-2.806
10105.000			-22.443			-2.805
10204.000			-22.437			-2.805
10304.000			-22.431			-2.804
10405.000			-22.426			-2.803
10504.000			-22.416			-2.802
10604.000			-22.410			-2.801
10705.000			-22.405			-2.801
10804.000			-22.399			-2.800
10903.000			-22.394			-2.799
11005.000			-22.389			-2.799
11104.000			-22.384			-2.798
11205.000			-22.375			-2.797
11304.000			-22.369			-2.796
11404.000			-22.364			-2.795
11505.000			-22.359			-2.795
11603.000			-22.354			-2.794
11704.000			-22.350			-2.794
11805.000			-22.345			-2.793
11904.000			-22.339			-2.792
12004.000			-22.329			-2.791
12105.000			-22.325			-2.791
12204.000			-22.320			-2.790
12303.000			-22.314			-2.789
12405.000			-22.310			-2.789
12504.000			-22.306			-2.788
12604.000			-22.301			-2.788
12705.000			-22.293			-2.787
12803.000			-22.288			-2.786
12904.000			-22.284			-2.785
13005.000			-22.280			-2.785
13104.000			-22.276			-2.784
13204.000			-22.271			-2.784
13305.000			-22.266			-2.783
13404.000			-22.259			-2.782
13503.000			-22.254			-2.782
13605.000			-22.250			-2.781
13704.000			-22.246			-2.781
13804.000			-22.242			-2.780
13905.000			-22.238			-2.780
14004.000			-22.233			-2.779
14104.000			-22.225			-2.778
14203.000			-22.221			-2.778
14304.000			-22.218			-2.777
14405.000			-22.214			-2.777
14504.000			-22.209			-2.776
14604.000			-22.206			-2.776
14704.000			-22.203			-2.775
14804.000			-22.199			-2.775
14904.000			-22.191			-2.774
15005.000			-22.187			-2.773
15104.000			-22.183			-2.773
15204.000			-22.180			-2.773
15305.000			-22.177			-2.772
15403.000			-22.173			-2.772
15504.000			-22.170			-2.771
15605.000			-22.164			-2.770
15704.000			-22.160			-2.770
15804.000			-22.156			-2.770
15905.000			-22.154			-2.769
16004.000			-22.152			-2.769
16103.000			-22.148			-2.768
16205.000			-22.144			-2.768
16304.000			-22.138			-2.767
16404.000			-22.133			-2.767
16505.000			-22.129			-2.766
16603.000			-22.125			-2.766
16704.000			-22.123			-2.765
16805.000			-22.119			-2.765
16904.000			-22.116			-2.764
17004.000			-22.110			-2.764
17105.000			-22.107			-2.763
17204.000			-22.103			-2.763
17303.000			-22.101			-2.763
17405.000			-22.099			-2.762
17504.000			-22.095			-2.762
17605.000			-22.091			-2.761
17704.000			-22.089			-2.761
17804.000			-22.083			-2.760
17905.000			-22.080			-2.760
18003.000			-22.077			-2.760
18104.000			-22.075			-2.759
18205.000			-22.071			-2.759
18304.000			-22.067			-2.758
18404.000			-22.063			-2.758
18504.000			-22.056			-2.757
18604.000			-22.055			-2.757
18704.000			-22.052			-2.757
18805.000			-22.049			-2.756
18904.000			-22.046			-2.756
19004.000			-22.044			-2.756
19105.000			-22.042			-2.755
19203.000			-22.037			-2.755
19304.000			-22.036			-2.755
19405.000			-22.033			-2.754
19504.000			-22.030			-2.754
19604.000			-22.027			-2.753
19705.000			-22.024			-2.753
19804.000			-22.022			-2.753
19903.000			-22.019			-2.752
20005.000			-22.014			-2.752
20104.000			-22.009			-2.751
20204.000			-22.006			-2.751
20305.000			-22.004			-2.750
20403.000			-22.001			-2.750
20504.000			-22.000			-2.750
20605.000			-21.997			-2.750
20704.000			-21.991			-2.749
20805.000			-21.990			-2.749
20904.000			-21.987			-2.748
21004.000			-21.984			-2.748
21104.000			-21.981			-2.748
21204.000			-21.979			-2.747
21304.000			-21.977			-2.747
21405.000			-21.972			-2.746
21504.000			-21.969			-2.746
21604.000			-21.965			-2.746
21705.000			-21.962			-2.745
21803.000			-21.960			-2.745
21904.000			-21.958			-2.745
22005.000			-21.954			-2.744
22104.000			-21.950			-2.744
22204.000			-21.947			-2.743
22305.000			-21.946			-2.743
22404.000			-21.942			-2.743
22503.000			-21.940			-2.743
22605.000			-21.939			-2.742
22704.000			-21.937			-2.742
22804.000			-21.935			-2.742
22905.000			-21.929			-2.741
23004.000			-21.926			-2.741
23104.000			-21.924			-2.741
23204.000			-21.922			-2.740
23304.000			-21.920			-2.740
23404.000			-21.918			-2.740
23505.000			-21.916			-2.739
23604.000			-21.913			-2.739
23703.000			-21.911			-2.739
23805.000			-21.908			-2.739
23904.000			-21.906			-2.738
24005.000			-21.904			-2.738
24104.000			-21.902			-2.738
24204.000			-21.900			-2.738
24305.000			-21.894			-2.737
24403.000			-21.892			-2.736
24504.000			-21.889			-2.736
24605.000			-21.888			-2.736
24704.000			-21.886			-2.736
24804.000			-21.883			-2.735
24905.000			-21.882			-2.735
25004.000			-21.880			-2.735
25103.000			-21.874			-2.734
25205.000			-21.872			-2.734
25304.000			-21.870			-2.734
25404.000			-21.867			-2.733
25505.000			-21.865			-2.733
25604.000			-21.863			-2.733
25704.000			-21.861			-2.733
25804.000			-21.856			-2.732
25904.000			-21.854			-2.732
26004.000			-21.852			-2.732
26105.000			-21.850			-2.731
26204.000			-21.849			-2.731
26304.000			-21.846			-2.731
26405.000			-21.844			-2.730
26503.000			-21.838			-2.730
26604.000			-21.836			-2.730
26705.000			-21.835			-2.729
26804.000			-21.833			-2.729
26904.000			-21.832			-2.729
27004.000			-21.829			-2.729
27104.000			-21.827			-2.728
27203.000			-21.822			-2.728
27304.000			-21.821			-2.728
27404.000			-21.819			-2.727
27505.000			-21.817			-2.727
27604.000			-21.815			-2.727
27703.000			-21.814			-2.727
27805.000			-21.812			-2.727
27904.000			-21.809			-2.726
28004.000			-21.806			-2.726
28105.000			-21.804			-2.726
28204.000			-21.801			-2.725
28304.000			-21.799			-2.725
28404.000			-21.798			-2.725
28504.000			-21.796			-2.725
28604.000			-21.794			-2.724
28705.000			-21.790			-2.724
28804.000			-21.788			-2.724
28904.000			-21.787			-2.723
29005.000			-21.785			-2.723
29103.000			-21.784			-2.723
29204.000			-21.781			-2.723
29305.000			-21.779			-2.722
29404.000			-21.776			-2.722
29504.000			-21.773			-2.722
29605.000			-21.772			-2.721
29704.000			-21.770			-2.721
29803.000			-21.769			-2.721
29905.000			-21.766			-2.721
30004.000			-21.765			-2.721
30104.000			-21.761			-2.720
30205.000			-21.760			-2.720
30304.000			-21.758			-2.720
30405.000			-21.757			-2.720
30503.000			-21.754			-2.719
30604.000			-21.751			-2.719
30705.000			-21.751			-2.719
30804.000			-21.749			-2.719
30904.000			-21.745			-2.718
31005.000			-21.745			-2.718
31104.000			-21.743			-2.718
31203.000			-21.740			-2.718
31305.000			-21.740			-2.717
31404.000			-21.737			-2.717
31504.000			-21.735			-2.717
31605.000			-21.733			-2.717
31703.000			-21.732			-2.716
31804.000			-21.730			-2.716
31905.000			-21.728			-2.716
32004.000			-21.727			-2.716
32104.000			-21.724			-2.716
32205.000			-21.722			-2.715
32304.000			-21.719			-2.715
32403.000			-21.718			-2.715
32505.000			-21.716			-2.714
32604.000			-21.714			-2.714
32704.000			-21.712			-2.714
32805.000			-21.710			-2.714
32904.000			-21.709			-2.714
33004.000			-21.708			-2.714
33104.000			-21.705			-2.713
33204.000			-21.703			-2.713
33304.000			-21.701			-2.713
33404.000			-21.700			-2.712
33504.000			-21.698			-2.712
33605.000			-21.695			-2.712
33704.000			-21.694			-2.712
33803.000			-21.692			-2.711
33905.000			-21.689			-2.711
34004.000			-21.689			-2.711
34104.000			-21.687			-2.711
34205.000			-21.685			-2.711
34303.000			-21.684			-2.711
34404.000			-21.683			-2.710
34505.000			-21.681			-2.710
34604.000			-21.677			-2.710
34704.000			-21.676			-2.709
34805.000			-21.675			-2.709
34904.000			-21.673			-2.709
35003.000			-21.672			-2.709
35105.000			-21.671			-2.709
35204.000			-21.669			-2.709
35304.000			-21.665			-2.708
35405.000			-21.663			-2.708
35504.000			-21.663			-2.708
35604.000			-21.662			-2.708
35704.000			-21.660			-2.708
35804.000			-21.659			-2.707
35904.000			-21.657			-2.707
36005.000			-21.656			-2.707
36104.000			-21.654			-2.707
36204.000			-21.652			-2.706
36305.000			-21.651			-2.706
36403.000			-21.649			-2.706
36504.000			-21.647			-2.706
36605.000			-21.645			-2.706
36704.000			-21.642			-2.705
36805.000			-21.641			-2.705
36904.000			-21.640			-2.705
37004.000			-21.639			-2.705
37104.000			-21.638			-2.705
37204.000			-21.636			-2.704
37304.000			-21.634			-2.704
37405.000			-21.631			-2.704
37504.000			-21.630			-2.704
37603.000			-21.628			-2.704
37705.000			-21.628			-2.703
37804.000			-21.626			-2.703
37904.000			-21.624			-2.703
38005.000			-21.623			-2.703
38104.000			-21.621			-2.703
38204.000			-21.619			-2.702
38304.000			-21.617			-2.702
38404.000			-21.617			-2.702
38504.000			-21.616			-2.702
38605.000			-21.615			-2.702
38704.000			-21.612			-2.702
38804.000			-21.611			-2.701
38905.000			-21.609			-2.701
39003.000			-21.608			-2.701
39104.000			-21.606			-2.701
39205.000			-21.603			-2.700
39304.000			-21.602			-2.700
39404.000			-21.602			-2.700
39505.000			-21.600			-2.700
39604.000			-21.597			-2.700
39703.000			-21.596			-2.700
39805.000			-21.595			-2.699
39904.000			-21.593			-2.699
40005.000			-21.592			-2.699
40104.000			-21.592			-2.699
40204.000			-21.590			-2.699
40305.000			-21.589			-2.699
40403.000			-21.586			-2.698
40504.000			-21.585			-2.698
40605.000			-21.584			-2.698
40704.000			-21.583			-2.698
40804.000			-21.582			-2.698
40904.000			-21.581			-2.698
41004.000			-21.579			-2.697
41104.000			-21.577			-2.697
41205.000			-21.576			-2.697
41304.000			-21.573			-2.697
41404.000			-21.572			-2.697
41505.000			-21.571			-2.696
41603.000			-21.570			-2.696
41704.000			-21.568			-2.696
41805.000			-21.567			-2.696
41904.000			-21.566			-2.696
42004.000			-21.564			-2.696
42105.000			-21.563			-2.695
42204.000			-21.561			-2.695
42303.000			-21.560			-2.695
42405.000			-21.560			-2.695
42504.000			-21.558			-2.695
42604.000			-21.557			-2.695
42705.000			-21.554			-2.694
42803.000			-21.553			-2.694
42904.000			-21.552			-2.694
43005.000			-21.551			-2.694
43104.000			-21.549			-2.694
43205.000			-21.547			-2.693
43304.000			-21.546			-2.693
43404.000			-21.545			-2.693
43504.000			-21.543			-2.693
43604.000			-21.543			-2.693
43704.000			-21.542			-2.693
43805.000			-21.540			-2.692
43904.000			-21.537			-2.692
44004.000			-21.535			-2.692
44105.000			-21.535			-2.692
44203.000			-21.533			-2.692
44304.000			-21.533			-2.692
44405.000			-21.531			-2.691
44504.000			-21.530			-2.691
44604.000			-21.529			-2.691
44705.000			-21.526			-2.691
44804.000			-21.525			-2.691
44903.000			-21.524			-2.690
45005.000			-21.523			-2.690
45104.000			-21.522			-2.690
45204.000			-21.520			-2.690
45305.000			-21.519			-2.690
45403.000			-21.518			-2.690
45504.000			-21.517			-2.690
45605.000			-21.515			-2.689
45704.000			-21.514			-2.689
45804.000			-21.512			-2.689
45905.000			-21.511			-2.689
46004.000			-21.510			-2.689
46103.000			-21.509			-2.689
46205.000			-21.508			-2.688
46304.000			-21.507			-2.688
46405.000			-21.506			-2.688
46504.000			-21.503			-2.688
46604.000			-21.502			-2.688
46705.000			-21.501			-2.688
46803.000			-21.501			-2.688
46904.000			-21.497			-2.687
47005.000			-21.497			-2.687
47104.000			-21.496			-2.687
47204.000			-21.494			-2.687
47305.000			-21.494			-2.687
47404.000			-21.493			-2.687
47503.000			-21.491			-2.686
47605.000			-21.491			-2.686
47704.000			-21.487			-2.686
47804.000			-21.485			-2.686
47905.000			-21.485			-2.686
48004.000			-21.484			-2.685
48104.000			-21.483			-2.685
48204.000			-21.482			-2.685
48304.000			-21.482			-2.685
48404.000			-21.480			-2.685
48505.000			-21.479			-2.685
48604.000			-21.477			-2.685
48703.000			-21.476			-2.685
48805.000			-21.476			-2.684
48904.000			-21.474			-2.684
49004.000			-21.473			-2.684
49105.000			-21.471			-2.684
49204.000			-21.469			-2.684
49304.000			-21.468			-2.683
49404.000			-21.466			-2.683
49504.000			-21.466			-2.683
49603.000			-21.465			-2.683
49704.000			-21.464			-2.683
49804.000			-21.463			-2.683
49905.000			-21.461			-2.683
50004.000			-21.460			-2.683
50103.000			-21.459			-2.682
50205.000			-21.458			-2.682
50304.000			-21.458			-2.682
50404.000			-21.456			-2.682
50505.000			-21.455			-2.682
50604.000			-21.454			-2.682
50704.000			-21.453			-2.682
50804.000			-21.452			-2.681
50904.000			-21.451			-2.681
51004.000			-21.449			-2.681
51105.000			-21.447			-2.681
51204.000			-21.447			-2.681
51304.000			-21.444			-2.681
51405.000			-21.444			-2.680
51503.000			-21.442			-2.680
51604.000			-21.442			-2.680
51705.000			-21.440			-2.680
51804.000			-21.439			-2.680
51904.000			-21.438			-2.680
52005.000			-21.437			-2.680
52104.000			-21.436			-2.680
52203.000			-21.435			-2.679
52305.000			-21.434			-2.679
52404.000			-21.432			-2.679
52504.000			-21.430			-2.679
52605.000			-21.430			-2.679
52703.000			-21.429			-2.679
52805.000			-21.427			-2.678
52904.000			-21.426			-2.678
53004.000			-21.425			-2.678
53105.000			-21.424			-2.678
53204.000			-21.423			-2.678
53304.000			-21.421			-2.678
53404.000			-21.420			-2.678
53504.000			-21.419			-2.677
53604.000			-21.419			-2.677
53705.000			-21.417			-2.677
53804.000			-21.416			-2.677
53904.000			-21.416			-2.677
54005.000			-21.415			-2.677
54103.000			-21.414			-2.677
54204.000			-21.411			-2.676
54305.000			-21.411			-2.676
54404.000			-21.411			-2.676
54504.000			-21.410			-2.676
54604.000			-21.409			-2.676
54704.000			-21.408			-2.676
54804.000			-21.406			-2.676
54905.000			-21.405			-2.676
55004.000			-21.403			-2.675
55104.000			-21.403			-2.675
55205.000			-21.402			-2.675
55303.000			-21.400			-2.675
55404.000			-21.400			-2.675
55505.000			-21.399			-2.675
55604.000			-21.398			-2.675
55704.000			-21.397			-2.675
55804.000			-21.396			-2.675
55904.000			-21.393			-2.674
56003.000			-21.392			-2.674
56104.000			-21.392			-2.674
56204.000			-21.392			-2.674
56305.000			-21.391			-2.674
56404.000			-21.388			-2.674
56504.000			-21.388			-2.674
56605.000			-21.387			-2.673
56703.000			-21.385			-2.673
56804.000			-21.384			-2.673
56905.000			-21.385			-2.673
57004.000			-21.383			-2.673
57104.000			-21.381			-2.673
57205.000			-21.381			-2.673
57304.000			-21.380			-2.672
57403.000			-21.379			-2.672
57505.000			-21.378			-2.672
57604.000			-21.377			-2.672
57704.000			-21.377			-2.672
57805.000			-21.375			-2.672
57904.000			-21.372			-2.671
58004.000			-21.370			-2.671
58104.000			-21.369			-2.671
58204.000			-21.368			-2.671
58304.000			-21.366			-2.671
58405.000			-21.365			-2.671
58504.000			-21.364			-2.671
58603.000			-21.364			-2.670
58705.000			-21.363			-2.670
58804.000			-21.362			-2.670
58904.000			-21.361			-2.670
59005.000			-21.360			-2.670
59104.000			-21.360			-2.670
59205.000			-21.359			-2.670
59303.000			-21.358			-2.670
59404.000			-21.357			-2.670
59505.000			-21.356			-2.670
59604.000			-21.355			-2.669
59704.000			-21.354			-2.669
59805.000			-21.353			-2.669
59904.000			-21.352			-2.669
60003.000			-21.352			-2.669
60105.000			-21.350			-2.669
60204.000			-21.349			-2.669
60304.000			-21.348			-2.669
60405.000			-21.348			-2.669
60504.000			-21.347			-2.668
60604.000			-21.347			-2.668
60704.000			-21.346			-2.668
60804.000			-21.345			-2.668
60904.000			-21.344			-2.668
61005.000			-21.342			-2.668
61104.000			-21.341			-2.668
61204.000			-21.340			-2.667
61305.000			-21.340			-2.668
61403.000			-21.338			-2.667
61504.000			-21.336			-2.667
61605.000			-21.336			-2.667
61704.000			-21.336			-2.667
61804.000			-21.334			-2.667
61904.000			-21.333			-2.667
62004.000			-21.333			-2.667
62104.000			-21.332			-2.666
62204.000			-21.332			-2.666
62304.000			-21.329			-2.666
62405.000			-21.328			-2.666
62504.000			-21.329			-2.666
62603.000			-21.328			-2.666
62705.000			-21.327			-2.666
62804.000			-21.325			-2.666
62904.000			-21.324			-2.666
63005.000			-21.323			-2.665
63104.000			-21.322			-2.665
63204.000			-21.322			-2.665
63304.000			-21.321			-2.665
63404.000			-21.320			-2.665
63504.000			-21.319			-2.665
63605.000			-21.317			-2.665
63704.000			-21.316			-2.664
63803.000			-21.315			-2.664
63905.000			-21.314			-2.664
64004.000			-21.314			-2.664
64104.000			-21.314			-2.664
64205.000			-21.312			-2.664
64304.000			-21.312			-2.664
64404.000			-21.309			-2.664
64504.000			-21.309			-2.664
64604.000			-21.309			-2.664
64704.000			-21.308			-2.664
64805.000			-21.307			-2.663
64904.000			-21.307			-2.663
65004.000			-21.306			-2.663
65105.000			-21.306			-2.663
65203.000			-21.304			-2.663
65304.000			-21.302			-2.663
65405.000			-21.301			-2.663
65504.000			-21.300			-2.663
65605.000			-21.300			-2.663
65703.000			-21.300			-2.662
65804.000			-21.299			-2.662
65904.000			-21.296			-2.662
66004.000			-21.296			-2.662
66104.000			-21.296			-2.662
66205.000			-21.296			-2.662
66304.000			-21.295			-2.662
66403.000			-21.293			-2.662
66505.000			-21.292			-2.661
66604.000			-21.292			-2.661
66704.000			-21.292			-2.661
66805.000			-21.291			-2.661
66904.000			-21.288			-2.661
67004.000			-21.288			-2.661
67104.000			-21.289			-2.661
67204.000			-21.288			-2.661
67304.000			-21.287			-2.661
67405.000			-21.286			-2.661
67504.000			-21.285			-2.661
67604.000			-21.284			-2.660
67705.000			-21.283			-2.660
67803.000			-21.283			-2.660
67904.000			-21.283			-2.660
68004.000			-21.281			-2.660
68104.000			-21.280			-2.660
68204.000			-21.279			-2.660
68305.000			-21.279			-2.660
68404.000			-21.278			-2.660
68503.000			-21.277			-2.660
68605.000			-21.277			-2.660
68704.000			-21.276			-2.660
68805.000			-21.274			-2.659
