# Acquired on 09/01/2024 13:02:53 
# SPIDER: Creep_8mm_0771453C
# CREEP MEASUREMENT

# time [ms]		force [N]		stiffness [N/mm]
1.000			-43.422			-5.428
100.000			-45.413			-5.677
201.000			-46.052			-5.756
300.000			-45.908			-5.739
400.000			-45.706			-5.713
502.000			-45.557			-5.695
601.000			-45.435			-5.679
701.000			-45.243			-5.655
800.000			-45.162			-5.645
900.000			-45.090			-5.636
1001.000			-45.024			-5.628
1100.000			-44.963			-5.620
1200.000			-44.908			-5.613
1302.000			-44.855			-5.607
1401.000			-44.761			-5.595
1500.000			-44.718			-5.590
1601.000			-44.678			-5.585
1700.000			-44.640			-5.580
1800.000			-44.602			-5.575
1901.000			-44.567			-5.571
2001.000			-44.534			-5.567
2101.000			-44.471			-5.559
2201.000			-44.442			-5.555
2300.000			-44.413			-5.552
2400.000			-44.386			-5.548
2501.000			-44.358			-5.545
2600.000			-44.334			-5.542
2700.000			-44.309			-5.539
2802.000			-44.261			-5.533
2901.000			-44.238			-5.530
3000.000			-44.217			-5.527
3101.000			-44.196			-5.525
3200.000			-44.176			-5.522
3300.000			-44.155			-5.519
3401.000			-44.136			-5.517
3501.000			-44.117			-5.515
3602.000			-44.080			-5.510
3700.000			-44.062			-5.508
3800.000			-44.044			-5.506
3901.000			-44.027			-5.503
4000.000			-44.010			-5.501
4100.000			-43.994			-5.499
4201.000			-43.978			-5.497
4301.000			-43.948			-5.493
4401.000			-43.932			-5.491
4501.000			-43.916			-5.489
4600.000			-43.902			-5.488
4700.000			-43.887			-5.486
4801.000			-43.874			-5.484
4900.000			-43.860			-5.483
5000.000			-43.834			-5.479
5102.000			-43.821			-5.478
5201.000			-43.808			-5.476
5300.000			-43.795			-5.474
5401.000			-43.783			-5.473
5500.000			-43.772			-5.471
5600.000			-43.759			-5.470
5701.000			-43.735			-5.467
5800.000			-43.722			-5.465
5901.000			-43.712			-5.464
6002.000			-43.700			-5.463
6100.000			-43.689			-5.461
6200.000			-43.678			-5.460
6301.000			-43.667			-5.458
6400.000			-43.657			-5.457
6500.000			-43.637			-5.455
6601.000			-43.627			-5.453
6701.000			-43.617			-5.452
6802.000			-43.607			-5.451
6900.000			-43.597			-5.450
7000.000			-43.587			-5.448
7101.000			-43.578			-5.447
7200.000			-43.559			-5.445
7300.000			-43.550			-5.444
7402.000			-43.541			-5.443
7501.000			-43.532			-5.441
7600.000			-43.523			-5.440
7701.000			-43.514			-5.439
7800.000			-43.506			-5.438
7900.000			-43.489			-5.436
8001.000			-43.481			-5.435
8100.000			-43.472			-5.434
8201.000			-43.463			-5.433
8302.000			-43.455			-5.432
8400.000			-43.448			-5.431
8500.000			-43.440			-5.430
8601.000			-43.431			-5.429
8700.000			-43.416			-5.427
8800.000			-43.409			-5.426
8901.000			-43.401			-5.425
9001.000			-43.394			-5.424
9101.000			-43.386			-5.423
9201.000			-43.379			-5.422
9300.000			-43.371			-5.421
9400.000			-43.355			-5.419
9501.000			-43.349			-5.419
9600.000			-43.342			-5.418
9701.000			-43.335			-5.417
9802.000			-43.328			-5.416
9901.000			-43.320			-5.415
10000.000			-43.314			-5.414
10100.000			-43.300			-5.412
10200.000			-43.294			-5.412
10301.000			-43.288			-5.411
10400.000			-43.281			-5.410
10501.000			-43.274			-5.409
10602.000			-43.268			-5.408
10700.000			-43.262			-5.408
10800.000			-43.250			-5.406
10901.000			-43.244			-5.405
11000.000			-43.238			-5.405
11100.000			-43.232			-5.404
11201.000			-43.226			-5.403
11301.000			-43.219			-5.402
11401.000			-43.214			-5.402
11501.000			-43.207			-5.401
11600.000			-43.196			-5.400
11700.000			-43.190			-5.399
11801.000			-43.185			-5.398
11900.000			-43.179			-5.397
12000.000			-43.174			-5.397
12102.000			-43.168			-5.396
12201.000			-43.162			-5.395
12300.000			-43.150			-5.394
12401.000			-43.146			-5.393
12500.000			-43.140			-5.392
12600.000			-43.134			-5.392
12701.000			-43.128			-5.391
12800.000			-43.123			-5.390
12901.000			-43.119			-5.390
13002.000			-43.109			-5.389
13100.000			-43.104			-5.388
13200.000			-43.099			-5.387
13300.000			-43.093			-5.387
13400.000			-43.088			-5.386
13501.000			-43.084			-5.385
13601.000			-43.078			-5.385
13701.000			-43.068			-5.383
13801.000			-43.063			-5.383
13900.000			-43.058			-5.382
14000.000			-43.052			-5.382
14101.000			-43.047			-5.381
14200.000			-43.043			-5.380
14300.000			-43.039			-5.380
14402.000			-43.034			-5.379
14501.000			-43.026			-5.378
14600.000			-43.019			-5.377
14701.000			-43.015			-5.377
14800.000			-43.010			-5.376
14900.000			-43.006			-5.376
15001.000			-43.002			-5.375
15100.000			-42.998			-5.375
15201.000			-42.987			-5.373
15302.000			-42.983			-5.373
15400.000			-42.979			-5.372
15500.000			-42.975			-5.372
15601.000			-42.970			-5.371
15700.000			-42.966			-5.371
15800.000			-42.962			-5.370
15901.000			-42.953			-5.369
16001.000			-42.949			-5.369
16101.000			-42.945			-5.368
16201.000			-42.941			-5.368
16300.000			-42.938			-5.367
16400.000			-42.933			-5.367
16500.000			-42.928			-5.366
16600.000			-42.923			-5.365
16701.000			-42.915			-5.364
16801.000			-42.911			-5.364
16901.000			-42.908			-5.364
17001.000			-42.903			-5.363
17100.000			-42.899			-5.362
17200.000			-42.895			-5.362
17301.000			-42.891			-5.361
17400.000			-42.883			-5.360
17500.000			-42.879			-5.360
17602.000			-42.875			-5.359
17701.000			-42.872			-5.359
17800.000			-42.869			-5.359
17901.000			-42.865			-5.358
18000.000			-42.861			-5.358
18100.000			-42.853			-5.357
18201.000			-42.848			-5.356
18300.000			-42.845			-5.356
18401.000			-42.841			-5.355
18502.000			-42.837			-5.355
18600.000			-42.833			-5.354
18700.000			-42.829			-5.354
18801.000			-42.823			-5.353
18900.000			-42.819			-5.352
19000.000			-42.815			-5.352
19101.000			-42.812			-5.351
19201.000			-42.809			-5.351
19301.000			-42.805			-5.351
19401.000			-42.803			-5.350
19500.000			-42.799			-5.350
19600.000			-42.790			-5.349
19700.000			-42.787			-5.348
19800.000			-42.784			-5.348
19901.000			-42.781			-5.348
20001.000			-42.777			-5.347
20101.000			-42.773			-5.347
20201.000			-42.770			-5.346
20300.000			-42.763			-5.345
20400.000			-42.760			-5.345
20501.000			-42.756			-5.345
20600.000			-42.752			-5.344
20700.000			-42.750			-5.344
20802.000			-42.747			-5.343
20901.000			-42.744			-5.343
21000.000			-42.736			-5.342
21101.000			-42.734			-5.342
21200.000			-42.731			-5.341
21300.000			-42.727			-5.341
21401.000			-42.724			-5.341
21500.000			-42.719			-5.340
21601.000			-42.716			-5.340
21702.000			-42.713			-5.339
21800.000			-42.708			-5.339
21900.000			-42.705			-5.338
22001.000			-42.702			-5.338
22100.000			-42.699			-5.337
22200.000			-42.696			-5.337
22301.000			-42.693			-5.337
22401.000			-42.689			-5.336
22501.000			-42.684			-5.335
22601.000			-42.681			-5.335
22700.000			-42.677			-5.335
22800.000			-42.674			-5.334
22900.000			-42.671			-5.334
23000.000			-42.669			-5.334
23101.000			-42.666			-5.333
23201.000			-42.660			-5.332
23301.000			-42.658			-5.332
23401.000			-42.654			-5.332
23500.000			-42.651			-5.331
23600.000			-42.648			-5.331
23701.000			-42.644			-5.331
23800.000			-42.641			-5.330
23900.000			-42.636			-5.330
24002.000			-42.633			-5.329
24101.000			-42.630			-5.329
24200.000			-42.628			-5.328
24301.000			-42.625			-5.328
24400.000			-42.621			-5.328
24500.000			-42.620			-5.327
24601.000			-42.617			-5.327
24701.000			-42.611			-5.326
24801.000			-42.608			-5.326
24902.000			-42.605			-5.326
25000.000			-42.603			-5.325
25100.000			-42.600			-5.325
25201.000			-42.598			-5.325
25300.000			-42.595			-5.324
25400.000			-42.589			-5.324
25502.000			-42.587			-5.323
25601.000			-42.585			-5.323
25701.000			-42.581			-5.323
25801.000			-42.578			-5.322
25900.000			-42.576			-5.322
26000.000			-42.573			-5.322
26100.000			-42.568			-5.321
26200.000			-42.565			-5.321
26302.000			-42.563			-5.320
26401.000			-42.560			-5.320
26501.000			-42.557			-5.320
26601.000			-42.554			-5.319
26700.000			-42.552			-5.319
26800.000			-42.547			-5.318
26901.000			-42.546			-5.318
27000.000			-42.543			-5.318
27101.000			-42.540			-5.318
27202.000			-42.537			-5.317
27301.000			-42.535			-5.317
27400.000			-42.532			-5.317
27501.000			-42.530			-5.316
27600.000			-42.524			-5.315
27700.000			-42.520			-5.315
27801.000			-42.518			-5.315
27901.000			-42.516			-5.315
28001.000			-42.514			-5.314
28101.000			-42.512			-5.314
28200.000			-42.509			-5.314
28300.000			-42.505			-5.313
28401.000			-42.502			-5.313
28500.000			-42.500			-5.312
28600.000			-42.497			-5.312
28702.000			-42.496			-5.312
28801.000			-42.493			-5.312
28901.000			-42.490			-5.311
29001.000			-42.484			-5.311
29100.000			-42.483			-5.310
29200.000			-42.481			-5.310
29300.000			-42.479			-5.310
29400.000			-42.477			-5.310
29501.000			-42.474			-5.309
29601.000			-42.471			-5.309
29701.000			-42.467			-5.308
29801.000			-42.464			-5.308
29900.000			-42.462			-5.308
30000.000			-42.460			-5.308
30101.000			-42.458			-5.307
30200.000			-42.455			-5.307
30300.000			-42.452			-5.307
30402.000			-42.450			-5.306
30501.000			-42.446			-5.306
30600.000			-42.444			-5.306
30701.000			-42.442			-5.305
30800.000			-42.440			-5.305
30900.000			-42.437			-5.305
31001.000			-42.435			-5.304
31101.000			-42.432			-5.304
31201.000			-42.427			-5.303
31301.000			-42.426			-5.303
31400.000			-42.424			-5.303
31500.000			-42.421			-5.303
31601.000			-42.419			-5.302
31700.000			-42.417			-5.302
31800.000			-42.415			-5.302
31902.000			-42.411			-5.301
32001.000			-42.409			-5.301
32100.000			-42.407			-5.301
32201.000			-42.405			-5.301
32300.000			-42.402			-5.300
32400.000			-42.399			-5.300
32500.000			-42.397			-5.300
32600.000			-42.392			-5.299
32702.000			-42.391			-5.299
32801.000			-42.390			-5.299
32900.000			-42.387			-5.298
33001.000			-42.385			-5.298
33100.000			-42.383			-5.298
33200.000			-42.380			-5.298
33301.000			-42.378			-5.297
33400.000			-42.374			-5.297
33501.000			-42.372			-5.296
33602.000			-42.370			-5.296
33700.000			-42.368			-5.296
33800.000			-42.365			-5.296
33901.000			-42.363			-5.295
34000.000			-42.361			-5.295
34100.000			-42.357			-5.295
34201.000			-42.354			-5.294
34301.000			-42.352			-5.294
34400.000			-42.352			-5.294
34501.000			-42.350			-5.294
34600.000			-42.347			-5.293
34700.000			-42.345			-5.293
34801.000			-42.341			-5.293
34900.000			-42.339			-5.292
35001.000			-42.337			-5.292
35102.000			-42.335			-5.292
35200.000			-42.333			-5.292
35300.000			-42.331			-5.291
35401.000			-42.330			-5.291
35500.000			-42.325			-5.291
35600.000			-42.323			-5.290
35700.000			-42.322			-5.290
35801.000			-42.320			-5.290
35902.000			-42.318			-5.290
36000.000			-42.316			-5.290
36100.000			-42.314			-5.289
36201.000			-42.313			-5.289
36300.000			-42.309			-5.289
36400.000			-42.307			-5.288
36502.000			-42.304			-5.288
36601.000			-42.302			-5.288
36701.000			-42.301			-5.288
36801.000			-42.299			-5.287
36900.000			-42.296			-5.287
37000.000			-42.294			-5.287
37101.000			-42.292			-5.286
37200.000			-42.289			-5.286
37301.000			-42.287			-5.286
37402.000			-42.286			-5.286
37500.000			-42.283			-5.285
37600.000			-42.282			-5.285
37701.000			-42.278			-5.285
37800.000			-42.276			-5.285
37900.000			-42.275			-5.284
38001.000			-42.273			-5.284
38101.000			-42.271			-5.284
38201.000			-42.269			-5.284
38301.000			-42.267			-5.283
38400.000			-42.266			-5.283
38500.000			-42.262			-5.283
38601.000			-42.260			-5.282
38700.000			-42.257			-5.282
38800.000			-42.256			-5.282
38902.000			-42.253			-5.282
39001.000			-42.250			-5.281
39101.000			-42.249			-5.281
39200.000			-42.246			-5.281
39300.000			-42.245			-5.281
39401.000			-42.243			-5.280
39500.000			-42.242			-5.280
39600.000			-42.240			-5.280
39702.000			-42.239			-5.280
39801.000			-42.237			-5.280
39900.000			-42.234			-5.279
40001.000			-42.232			-5.279
40100.000			-42.229			-5.279
40200.000			-42.228			-5.278
40301.000			-42.227			-5.278
40400.000			-42.225			-5.278
40501.000			-42.223			-5.278
40602.000			-42.220			-5.278
40700.000			-42.218			-5.277
40800.000			-42.216			-5.277
40901.000			-42.214			-5.277
41000.000			-42.212			-5.277
41100.000			-42.211			-5.276
41202.000			-42.209			-5.276
41301.000			-42.207			-5.276
41401.000			-42.205			-5.276
41501.000			-42.203			-5.275
41600.000			-42.201			-5.275
41700.000			-42.200			-5.275
41801.000			-42.199			-5.275
41900.000			-42.197			-5.275
42000.000			-42.196			-5.275
42102.000			-42.191			-5.274
42201.000			-42.189			-5.274
42301.000			-42.188			-5.273
42400.000			-42.186			-5.273
42500.000			-42.185			-5.273
42601.000			-42.184			-5.273
42700.000			-42.182			-5.273
42801.000			-42.177			-5.272
42902.000			-42.176			-5.272
43000.000			-42.175			-5.272
43100.000			-42.173			-5.272
43201.000			-42.171			-5.271
43300.000			-42.170			-5.271
43400.000			-42.168			-5.271
43501.000			-42.166			-5.271
43601.000			-42.164			-5.271
43701.000			-42.162			-5.270
43801.000			-42.159			-5.270
43900.000			-42.158			-5.270
44000.000			-42.157			-5.270
44101.000			-42.157			-5.270
44200.000			-42.156			-5.269
44300.000			-42.152			-5.269
44402.000			-42.151			-5.269
44501.000			-42.147			-5.268
44600.000			-42.146			-5.268
44701.000			-42.144			-5.268
44800.000			-42.143			-5.268
44900.000			-42.142			-5.268
45001.000			-42.137			-5.267
45100.000			-42.136			-5.267
45202.000			-42.136			-5.267
45301.000			-42.135			-5.267
45400.000			-42.133			-5.267
45501.000			-42.131			-5.266
45600.000			-42.129			-5.266
45700.000			-42.125			-5.266
45801.000			-42.124			-5.265
45901.000			-42.123			-5.265
46001.000			-42.122			-5.265
46101.000			-42.120			-5.265
46200.000			-42.119			-5.265
46300.000			-42.117			-5.265
46401.000			-42.115			-5.264
46500.000			-42.113			-5.264
46600.000			-42.111			-5.264
46702.000			-42.108			-5.264
46801.000			-42.107			-5.263
46900.000			-42.107			-5.263
47001.000			-42.106			-5.263
47100.000			-42.104			-5.263
47200.000			-42.101			-5.263
47301.000			-42.100			-5.262
47400.000			-42.098			-5.262
47501.000			-42.097			-5.262
47602.000			-42.097			-5.262
47700.000			-42.094			-5.262
47800.000			-42.093			-5.262
47901.000			-42.090			-5.261
48000.000			-42.088			-5.261
48100.000			-42.086			-5.261
48201.000			-42.083			-5.260
48301.000			-42.081			-5.260
48402.000			-42.080			-5.260
48500.000			-42.081			-5.260
48600.000			-42.077			-5.260
48701.000			-42.076			-5.260
48800.000			-42.076			-5.259
48900.000			-42.074			-5.259
49001.000			-42.072			-5.259
49101.000			-42.071			-5.259
49201.000			-42.070			-5.259
49301.000			-42.066			-5.258
49400.000			-42.064			-5.258
49500.000			-42.063			-5.258
49601.000			-42.062			-5.258
49700.000			-42.061			-5.258
49800.000			-42.060			-5.257
49902.000			-42.058			-5.257
50001.000			-42.056			-5.257
50100.000			-42.054			-5.257
50201.000			-42.052			-5.257
50300.000			-42.051			-5.256
50400.000			-42.049			-5.256
50501.000			-42.048			-5.256
50601.000			-42.047			-5.256
50701.000			-42.046			-5.256
50802.000			-42.042			-5.255
50900.000			-42.041			-5.255
51000.000			-42.039			-5.255
51101.000			-42.037			-5.255
51200.000			-42.036			-5.255
51300.000			-42.037			-5.255
51402.000			-42.035			-5.254
51501.000			-42.031			-5.254
51600.000			-42.029			-5.254
51700.000			-42.028			-5.254
51800.000			-42.029			-5.254
51901.000			-42.026			-5.253
52000.000			-42.025			-5.253
52100.000			-42.023			-5.253
52202.000			-42.021			-5.253
52301.000			-42.019			-5.252
52400.000			-42.018			-5.252
52501.000			-42.016			-5.252
52600.000			-42.015			-5.252
52700.000			-42.014			-5.252
52801.000			-42.013			-5.252
52901.000			-42.011			-5.251
53001.000			-42.009			-5.251
53101.000			-42.008			-5.251
53200.000			-42.006			-5.251
53300.000			-42.004			-5.251
53401.000			-42.003			-5.250
53500.000			-42.002			-5.250
53600.000			-42.000			-5.250
53702.000			-41.998			-5.250
53801.000			-41.997			-5.250
53900.000			-41.995			-5.249
54001.000			-41.993			-5.249
54100.000			-41.992			-5.249
54200.000			-41.991			-5.249
54301.000			-41.990			-5.249
54400.000			-41.989			-5.249
54501.000			-41.987			-5.248
54602.000			-41.985			-5.248
54700.000			-41.984			-5.248
54800.000			-41.983			-5.248
54900.000			-41.982			-5.248
55000.000			-41.980			-5.248
55101.000			-41.977			-5.247
55200.000			-41.977			-5.247
55301.000			-41.975			-5.247
55402.000			-41.974			-5.247
55501.000			-41.972			-5.247
55600.000			-41.971			-5.246
55701.000			-41.971			-5.246
55800.000			-41.970			-5.246
55900.000			-41.967			-5.246
56001.000			-41.964			-5.246
56100.000			-41.963			-5.245
56201.000			-41.962			-5.245
56302.000			-41.962			-5.245
56400.000			-41.960			-5.245
56500.000			-41.959			-5.245
56601.000			-41.957			-5.245
56700.000			-41.956			-5.244
56800.000			-41.954			-5.244
56901.000			-41.952			-5.244
57001.000			-41.951			-5.244
57101.000			-41.950			-5.244
57201.000			-41.949			-5.244
57300.000			-41.946			-5.243
57400.000			-41.946			-5.243
57501.000			-41.944			-5.243
57600.000			-41.942			-5.243
57700.000			-41.942			-5.243
57802.000			-41.941			-5.243
57901.000			-41.939			-5.242
58000.000			-41.936			-5.242
58100.000			-41.934			-5.242
58200.000			-41.933			-5.242
58301.000			-41.933			-5.242
58400.000			-41.932			-5.241
58500.000			-41.931			-5.241
58602.000			-41.930			-5.241
58701.000			-41.928			-5.241
58800.000			-41.925			-5.241
58901.000			-41.924			-5.240
59000.000			-41.922			-5.240
59100.000			-41.923			-5.240
59201.000			-41.921			-5.240
59300.000			-41.919			-5.240
59401.000			-41.918			-5.240
59502.000			-41.916			-5.240
59601.000			-41.914			-5.239
59700.000			-41.914			-5.239
59801.000			-41.913			-5.239
59900.000			-41.911			-5.239
60000.000			-41.910			-5.239
60101.000			-41.909			-5.239
60201.000			-41.907			-5.238
60301.000			-41.905			-5.238
60402.000			-41.905			-5.238
60500.000			-41.904			-5.238
60600.000			-41.903			-5.238
60701.000			-41.901			-5.238
60800.000			-41.899			-5.237
60900.000			-41.898			-5.237
61001.000			-41.896			-5.237
61101.000			-41.895			-5.237
61202.000			-41.894			-5.237
61300.000			-41.893			-5.237
61400.000			-41.892			-5.237
61501.000			-41.891			-5.236
61600.000			-41.889			-5.236
61700.000			-41.887			-5.236
61801.000			-41.886			-5.236
61901.000			-41.885			-5.236
62001.000			-41.883			-5.235
62101.000			-41.882			-5.235
62200.000			-41.881			-5.235
62300.000			-41.880			-5.235
62401.000			-41.878			-5.235
62500.000			-41.877			-5.235
62600.000			-41.875			-5.234
62702.000			-41.874			-5.234
62801.000			-41.875			-5.234
62900.000			-41.873			-5.234
63001.000			-41.872			-5.234
63100.000			-41.870			-5.234
63200.000			-41.869			-5.234
63301.000			-41.868			-5.233
63400.000			-41.865			-5.233
63501.000			-41.865			-5.233
63602.000			-41.863			-5.233
63700.000			-41.862			-5.233
63800.000			-41.860			-5.232
63901.000			-41.859			-5.232
64000.000			-41.857			-5.232
64100.000			-41.857			-5.232
64201.000			-41.856			-5.232
64301.000			-41.854			-5.232
64402.000			-41.853			-5.232
64500.000			-41.853			-5.232
64600.000			-41.849			-5.231
64701.000			-41.848			-5.231
64800.000			-41.847			-5.231
64900.000			-41.847			-5.231
65001.000			-41.845			-5.231
65101.000			-41.844			-5.231
65201.000			-41.844			-5.231
65301.000			-41.841			-5.230
65400.000			-41.840			-5.230
65500.000			-41.840			-5.230
65601.000			-41.839			-5.230
65700.000			-41.838			-5.230
65800.000			-41.836			-5.230
65902.000			-41.835			-5.229
66001.000			-41.833			-5.229
66100.000			-41.832			-5.229
66201.000			-41.832			-5.229
66300.000			-41.831			-5.229
66400.000			-41.828			-5.229
66501.000			-41.826			-5.228
66600.000			-41.826			-5.228
66701.000			-41.824			-5.228
66802.000			-41.822			-5.228
66900.000			-41.821			-5.228
67000.000			-41.821			-5.228
67101.000			-41.820			-5.228
67200.000			-41.819			-5.227
67300.000			-41.818			-5.227
67401.000			-41.817			-5.227
67501.000			-41.814			-5.227
67602.000			-41.813			-5.227
67700.000			-41.813			-5.227
67800.000			-41.812			-5.227
67901.000			-41.811			-5.226
68000.000			-41.811			-5.226
68100.000			-41.809			-5.226
68201.000			-41.807			-5.226
68301.000			-41.806			-5.226
68401.000			-41.804			-5.226
68501.000			-41.803			-5.225
68600.000			-41.802			-5.225
68700.000			-41.802			-5.225
68801.000			-41.801			-5.225
