# Acquired on 29/01/2024 11:03:39 
# SPIDER: Creep_7mm_HM077x145x38AA-1
# CREEP MEASUREMENT

# time [ms]		force [N]		stiffness [N/mm]
0.000			-36.049			-5.150
104.000			-38.074			-5.439
204.000			-38.137			-5.448
305.000			-38.034			-5.433
404.000			-37.946			-5.421
504.000			-37.876			-5.411
604.000			-37.813			-5.402
704.000			-37.758			-5.394
804.000			-37.667			-5.381
905.000			-37.628			-5.375
1004.000			-37.592			-5.370
1104.000			-37.557			-5.365
1205.000			-37.524			-5.361
1303.000			-37.496			-5.357
1404.000			-37.467			-5.352
1505.000			-37.416			-5.345
1604.000			-37.391			-5.342
1704.000			-37.368			-5.338
1804.000			-37.345			-5.335
1904.000			-37.324			-5.332
2004.000			-37.304			-5.329
2105.000			-37.285			-5.326
2204.000			-37.248			-5.321
2304.000			-37.230			-5.319
2405.000			-37.214			-5.316
2503.000			-37.197			-5.314
2604.000			-37.181			-5.312
2705.000			-37.167			-5.310
2804.000			-37.152			-5.307
2905.000			-37.123			-5.303
3004.000			-37.109			-5.301
3104.000			-37.095			-5.299
3204.000			-37.081			-5.297
3304.000			-37.069			-5.296
3404.000			-37.057			-5.294
3505.000			-37.045			-5.292
3604.000			-37.033			-5.290
3703.000			-37.011			-5.287
3805.000			-37.000			-5.286
3904.000			-36.989			-5.284
4004.000			-36.978			-5.283
4105.000			-36.968			-5.281
4204.000			-36.958			-5.280
4304.000			-36.947			-5.278
4404.000			-36.928			-5.275
4504.000			-36.917			-5.274
4604.000			-36.908			-5.273
4705.000			-36.900			-5.271
4804.000			-36.890			-5.270
4904.000			-36.881			-5.269
5005.000			-36.872			-5.267
5103.000			-36.855			-5.265
5204.000			-36.847			-5.264
5305.000			-36.839			-5.263
5404.000			-36.831			-5.262
5504.000			-36.822			-5.260
5604.000			-36.814			-5.259
5704.000			-36.807			-5.258
5804.000			-36.792			-5.256
5905.000			-36.784			-5.255
6004.000			-36.777			-5.254
6105.000			-36.771			-5.253
6204.000			-36.763			-5.252
6303.000			-36.755			-5.251
6405.000			-36.748			-5.250
6504.000			-36.741			-5.249
6604.000			-36.728			-5.247
6705.000			-36.722			-5.246
6804.000			-36.715			-5.245
6904.000			-36.709			-5.244
7004.000			-36.703			-5.243
7104.000			-36.696			-5.242
7204.000			-36.690			-5.241
7305.000			-36.676			-5.239
7404.000			-36.670			-5.239
7504.000			-36.664			-5.238
7605.000			-36.659			-5.237
7703.000			-36.653			-5.236
7804.000			-36.647			-5.235
7905.000			-36.641			-5.234
8004.000			-36.631			-5.233
8104.000			-36.626			-5.232
8204.000			-36.620			-5.231
8304.000			-36.614			-5.231
8404.000			-36.609			-5.230
8505.000			-36.603			-5.229
8604.000			-36.598			-5.228
8704.000			-36.587			-5.227
8805.000			-36.582			-5.226
8903.000			-36.578			-5.225
9004.000			-36.573			-5.225
9105.000			-36.566			-5.224
9204.000			-36.561			-5.223
9305.000			-36.557			-5.222
9404.000			-36.553			-5.222
9504.000			-36.542			-5.220
9604.000			-36.537			-5.220
9704.000			-36.532			-5.219
9804.000			-36.527			-5.218
9905.000			-36.523			-5.218
10004.000			-36.519			-5.217
10104.000			-36.516			-5.217
10205.000			-36.505			-5.215
10303.000			-36.500			-5.214
10404.000			-36.496			-5.214
10505.000			-36.493			-5.213
10604.000			-36.488			-5.213
10704.000			-36.484			-5.212
10804.000			-36.479			-5.211
10904.000			-36.471			-5.210
11003.000			-36.467			-5.210
11105.000			-36.462			-5.209
11204.000			-36.458			-5.208
11304.000			-36.455			-5.208
11405.000			-36.451			-5.207
11503.000			-36.446			-5.207
11604.000			-36.438			-5.205
11705.000			-36.435			-5.205
11804.000			-36.432			-5.205
11904.000			-36.427			-5.204
12005.000			-36.423			-5.203
12104.000			-36.419			-5.203
12203.000			-36.415			-5.202
12305.000			-36.411			-5.202
12404.000			-36.403			-5.200
12505.000			-36.400			-5.200
12604.000			-36.396			-5.199
12704.000			-36.392			-5.199
12805.000			-36.389			-5.198
12903.000			-36.385			-5.198
13004.000			-36.381			-5.197
13105.000			-36.374			-5.196
13204.000			-36.372			-5.196
13304.000			-36.368			-5.195
13404.000			-36.364			-5.195
13504.000			-36.361			-5.194
13604.000			-36.358			-5.194
13705.000			-36.354			-5.193
13804.000			-36.347			-5.192
13904.000			-36.344			-5.192
14005.000			-36.341			-5.192
14103.000			-36.337			-5.191
14204.000			-36.334			-5.191
14305.000			-36.330			-5.190
14404.000			-36.327			-5.190
14504.000			-36.320			-5.189
14605.000			-36.317			-5.188
14704.000			-36.314			-5.188
14803.000			-36.311			-5.187
14905.000			-36.307			-5.187
15004.000			-36.305			-5.186
15104.000			-36.302			-5.186
15205.000			-36.299			-5.186
15304.000			-36.293			-5.185
15404.000			-36.290			-5.184
15504.000			-36.286			-5.184
15604.000			-36.283			-5.183
15705.000			-36.281			-5.183
15804.000			-36.278			-5.183
15904.000			-36.274			-5.182
16005.000			-36.268			-5.181
16104.000			-36.265			-5.181
16203.000			-36.262			-5.180
16305.000			-36.259			-5.180
16404.000			-36.256			-5.179
16504.000			-36.253			-5.179
16605.000			-36.251			-5.179
16704.000			-36.246			-5.178
16804.000			-36.243			-5.178
16904.000			-36.239			-5.177
17004.000			-36.237			-5.177
17104.000			-36.234			-5.176
17205.000			-36.231			-5.176
17304.000			-36.229			-5.176
17403.000			-36.225			-5.175
17505.000			-36.220			-5.174
17604.000			-36.217			-5.174
17704.000			-36.214			-5.173
17805.000			-36.211			-5.173
17904.000			-36.209			-5.173
18004.000			-36.207			-5.172
18104.000			-36.204			-5.172
18204.000			-36.198			-5.171
18304.000			-36.195			-5.171
18405.000			-36.194			-5.171
18504.000			-36.191			-5.170
18604.000			-36.188			-5.170
18705.000			-36.185			-5.169
18803.000			-36.183			-5.169
18905.000			-36.179			-5.168
19004.000			-36.176			-5.168
19104.000			-36.174			-5.168
19205.000			-36.171			-5.167
19304.000			-36.168			-5.167
19404.000			-36.166			-5.167
19504.000			-36.164			-5.166
19604.000			-36.158			-5.165
19703.000			-36.156			-5.165
19805.000			-36.154			-5.165
19904.000			-36.152			-5.165
20004.000			-36.149			-5.164
20105.000			-36.147			-5.164
20203.000			-36.144			-5.163
20304.000			-36.142			-5.163
20405.000			-36.136			-5.162
20504.000			-36.134			-5.162
20604.000			-36.132			-5.162
20705.000			-36.130			-5.161
20804.000			-36.127			-5.161
20903.000			-36.124			-5.161
21005.000			-36.123			-5.160
21104.000			-36.118			-5.160
21204.000			-36.116			-5.159
21305.000			-36.115			-5.159
21404.000			-36.112			-5.159
21504.000			-36.110			-5.159
21604.000			-36.109			-5.158
21704.000			-36.106			-5.158
21804.000			-36.101			-5.157
21905.000			-36.099			-5.157
22004.000			-36.097			-5.157
22103.000			-36.094			-5.156
22204.000			-36.092			-5.156
22304.000			-36.090			-5.156
22405.000			-36.086			-5.155
22504.000			-36.083			-5.155
22604.000			-36.080			-5.154
22705.000			-36.078			-5.154
22803.000			-36.077			-5.154
22904.000			-36.075			-5.154
23005.000			-36.073			-5.153
23104.000			-36.070			-5.153
23204.000			-36.067			-5.152
23305.000			-36.064			-5.152
23404.000			-36.062			-5.152
23503.000			-36.060			-5.151
23605.000			-36.058			-5.151
23704.000			-36.055			-5.151
23804.000			-36.053			-5.150
23905.000			-36.052			-5.150
24004.000			-36.047			-5.150
24104.000			-36.045			-5.149
24204.000			-36.043			-5.149
24304.000			-36.042			-5.149
24404.000			-36.040			-5.149
24505.000			-36.037			-5.148
24604.000			-36.035			-5.148
24703.000			-36.032			-5.147
24805.000			-36.030			-5.147
24904.000			-36.028			-5.147
25004.000			-36.026			-5.147
25105.000			-36.024			-5.146
25204.000			-36.022			-5.146
25305.000			-36.021			-5.146
25403.000			-36.017			-5.145
25504.000			-36.015			-5.145
25605.000			-36.012			-5.145
25704.000			-36.010			-5.144
25804.000			-36.008			-5.144
25905.000			-36.007			-5.144
26004.000			-36.005			-5.144
26103.000			-36.004			-5.143
26205.000			-36.001			-5.143
26304.000			-35.998			-5.143
26404.000			-35.995			-5.142
26505.000			-35.994			-5.142
26604.000			-35.992			-5.142
26704.000			-35.990			-5.141
26804.000			-35.988			-5.141
26904.000			-35.985			-5.141
27004.000			-35.982			-5.140
27105.000			-35.981			-5.140
27204.000			-35.980			-5.140
27304.000			-35.977			-5.140
27405.000			-35.975			-5.139
27503.000			-35.974			-5.139
27604.000			-35.969			-5.138
27705.000			-35.968			-5.138
27804.000			-35.967			-5.138
27904.000			-35.966			-5.138
28005.000			-35.963			-5.138
28104.000			-35.962			-5.137
28203.000			-35.960			-5.137
28305.000			-35.956			-5.137
28404.000			-35.954			-5.136
28505.000			-35.952			-5.136
28604.000			-35.951			-5.136
28704.000			-35.950			-5.136
28805.000			-35.947			-5.135
28903.000			-35.944			-5.135
29004.000			-35.943			-5.135
29105.000			-35.941			-5.134
29204.000			-35.940			-5.134
29304.000			-35.937			-5.134
29405.000			-35.936			-5.134
29504.000			-35.934			-5.133
29603.000			-35.932			-5.133
29705.000			-35.931			-5.133
29804.000			-35.927			-5.132
29904.000			-35.925			-5.132
30005.000			-35.923			-5.132
30104.000			-35.922			-5.132
30204.000			-35.920			-5.131
30304.000			-35.919			-5.131
30404.000			-35.918			-5.131
30504.000			-35.913			-5.130
30605.000			-35.912			-5.130
30704.000			-35.911			-5.130
30804.000			-35.909			-5.130
30905.000			-35.907			-5.130
31003.000			-35.905			-5.129
31104.000			-35.904			-5.129
31205.000			-35.901			-5.129
31304.000			-35.900			-5.129
31404.000			-35.898			-5.128
31505.000			-35.896			-5.128
31604.000			-35.894			-5.128
31703.000			-35.893			-5.128
31804.000			-35.892			-5.127
31904.000			-35.890			-5.127
32005.000			-35.888			-5.127
32104.000			-35.887			-5.127
32204.000			-35.884			-5.126
32305.000			-35.883			-5.126
32403.000			-35.881			-5.126
32504.000			-35.879			-5.126
32605.000			-35.878			-5.125
32704.000			-35.875			-5.125
32804.000			-35.875			-5.125
32905.000			-35.872			-5.125
33004.000			-35.871			-5.124
33103.000			-35.869			-5.124
33205.000			-35.868			-5.124
33304.000			-35.867			-5.124
33404.000			-35.863			-5.123
33505.000			-35.863			-5.123
33604.000			-35.861			-5.123
33704.000			-35.859			-5.123
33804.000			-35.857			-5.122
33904.000			-35.855			-5.122
34004.000			-35.854			-5.122
34105.000			-35.852			-5.122
34204.000			-35.850			-5.121
34304.000			-35.848			-5.121
34405.000			-35.846			-5.121
34503.000			-35.845			-5.121
34604.000			-35.844			-5.121
34705.000			-35.843			-5.120
34804.000			-35.843			-5.120
34905.000			-35.839			-5.120
35004.000			-35.837			-5.120
35104.000			-35.835			-5.119
35204.000			-35.834			-5.119
35304.000			-35.832			-5.119
35404.000			-35.831			-5.119
35505.000			-35.830			-5.119
35604.000			-35.826			-5.118
35703.000			-35.826			-5.118
35805.000			-35.824			-5.118
35904.000			-35.823			-5.118
36004.000			-35.822			-5.117
36105.000			-35.819			-5.117
36204.000			-35.818			-5.117
36304.000			-35.817			-5.117
36404.000			-35.814			-5.116
36504.000			-35.813			-5.116
36604.000			-35.811			-5.116
36705.000			-35.810			-5.116
36804.000			-35.809			-5.116
36904.000			-35.808			-5.115
37005.000			-35.806			-5.115
37103.000			-35.805			-5.115
37204.000			-35.804			-5.115
37305.000			-35.801			-5.114
37404.000			-35.799			-5.114
37504.000			-35.798			-5.114
37605.000			-35.797			-5.114
37704.000			-35.795			-5.114
37803.000			-35.793			-5.113
37905.000			-35.791			-5.113
38004.000			-35.790			-5.113
38105.000			-35.789			-5.113
38204.000			-35.787			-5.112
38304.000			-35.785			-5.112
38405.000			-35.783			-5.112
38504.000			-35.782			-5.112
38604.000			-35.781			-5.112
38704.000			-35.780			-5.111
38804.000			-35.778			-5.111
38904.000			-35.777			-5.111
39005.000			-35.776			-5.111
39104.000			-35.774			-5.111
39204.000			-35.772			-5.110
39305.000			-35.771			-5.110
39403.000			-35.769			-5.110
39504.000			-35.768			-5.110
39605.000			-35.766			-5.109
39704.000			-35.767			-5.110
39804.000			-35.765			-5.109
39905.000			-35.761			-5.109
40004.000			-35.761			-5.109
40103.000			-35.758			-5.108
40205.000			-35.756			-5.108
40304.000			-35.756			-5.108
40404.000			-35.756			-5.108
40505.000			-35.755			-5.108
40604.000			-35.752			-5.107
40704.000			-35.750			-5.107
40804.000			-35.748			-5.107
40904.000			-35.747			-5.107
41004.000			-35.745			-5.106
41105.000			-35.745			-5.106
41204.000			-35.743			-5.106
41303.000			-35.741			-5.106
41404.000			-35.740			-5.106
41504.000			-35.739			-5.106
41605.000			-35.738			-5.105
41704.000			-35.737			-5.105
41804.000			-35.735			-5.105
41905.000			-35.733			-5.105
42003.000			-35.733			-5.105
42104.000			-35.730			-5.104
42205.000			-35.729			-5.104
42304.000			-35.727			-5.104
42404.000			-35.726			-5.104
42505.000			-35.727			-5.104
42604.000			-35.725			-5.104
42703.000			-35.724			-5.103
42805.000			-35.721			-5.103
42904.000			-35.719			-5.103
43004.000			-35.718			-5.103
43105.000			-35.717			-5.102
43204.000			-35.716			-5.102
43304.000			-35.714			-5.102
43404.000			-35.713			-5.102
43504.000			-35.712			-5.102
43604.000			-35.710			-5.101
43705.000			-35.710			-5.101
43804.000			-35.708			-5.101
43904.000			-35.707			-5.101
44005.000			-35.706			-5.101
44103.000			-35.705			-5.101
44204.000			-35.704			-5.101
44305.000			-35.701			-5.100
44404.000			-35.700			-5.100
44505.000			-35.699			-5.100
44604.000			-35.697			-5.100
44704.000			-35.696			-5.099
44804.000			-35.696			-5.099
44904.000			-35.693			-5.099
45004.000			-35.691			-5.099
45105.000			-35.691			-5.099
45204.000			-35.690			-5.099
45304.000			-35.689			-5.098
45405.000			-35.687			-5.098
45503.000			-35.687			-5.098
45604.000			-35.686			-5.098
45705.000			-35.683			-5.098
45804.000			-35.683			-5.098
45904.000			-35.681			-5.097
46005.000			-35.680			-5.097
46104.000			-35.680			-5.097
46203.000			-35.678			-5.097
46305.000			-35.676			-5.097
46404.000			-35.676			-5.097
46504.000			-35.673			-5.096
46605.000			-35.673			-5.096
46704.000			-35.672			-5.096
46804.000			-35.670			-5.096
46904.000			-35.668			-5.095
47004.000			-35.668			-5.095
47104.000			-35.667			-5.095
47205.000			-35.665			-5.095
47304.000			-35.664			-5.095
47404.000			-35.663			-5.095
47505.000			-35.662			-5.095
47603.000			-35.660			-5.094
47705.000			-35.659			-5.094
47804.000			-35.659			-5.094
47904.000			-35.655			-5.094
48005.000			-35.654			-5.093
48104.000			-35.654			-5.093
48204.000			-35.653			-5.093
48304.000			-35.653			-5.093
48404.000			-35.652			-5.093
48504.000			-35.650			-5.093
48605.000			-35.648			-5.093
48704.000			-35.646			-5.092
48804.000			-35.645			-5.092
48905.000			-35.644			-5.092
49003.000			-35.644			-5.092
49104.000			-35.643			-5.092
49205.000			-35.641			-5.092
49304.000			-35.640			-5.091
49404.000			-35.638			-5.091
49505.000			-35.638			-5.091
49604.000			-35.637			-5.091
49703.000			-35.636			-5.091
49805.000			-35.634			-5.091
49904.000			-35.632			-5.090
50004.000			-35.631			-5.090
50105.000			-35.628			-5.090
50204.000			-35.628			-5.090
50304.000			-35.628			-5.090
50404.000			-35.626			-5.089
50504.000			-35.625			-5.089
50604.000			-35.624			-5.089
50705.000			-35.623			-5.089
50804.000			-35.621			-5.089
50903.000			-35.620			-5.089
51004.000			-35.620			-5.089
51103.000			-35.619			-5.088
51205.000			-35.618			-5.088
51304.000			-35.617			-5.088
51404.000			-35.616			-5.088
51505.000			-35.613			-5.088
51603.000			-35.614			-5.088
51704.000			-35.612			-5.087
51805.000			-35.612			-5.087
51904.000			-35.610			-5.087
52004.000			-35.609			-5.087
52105.000			-35.608			-5.087
52204.000			-35.606			-5.087
52303.000			-35.604			-5.086
52405.000			-35.603			-5.086
52504.000			-35.602			-5.086
52604.000			-35.601			-5.086
52705.000			-35.601			-5.086
52804.000			-35.601			-5.086
52904.000			-35.600			-5.086
53004.000			-35.597			-5.085
53104.000			-35.596			-5.085
53204.000			-35.595			-5.085
53305.000			-35.595			-5.085
53404.000			-35.593			-5.085
53504.000			-35.591			-5.084
53605.000			-35.590			-5.084
53703.000			-35.590			-5.084
53804.000			-35.588			-5.084
53905.000			-35.586			-5.084
54004.000			-35.586			-5.084
54105.000			-35.585			-5.084
54204.000			-35.586			-5.084
54304.000			-35.584			-5.083
54404.000			-35.582			-5.083
54504.000			-35.580			-5.083
54604.000			-35.580			-5.083
54705.000			-35.579			-5.083
54804.000			-35.578			-5.083
54904.000			-35.576			-5.082
55005.000			-35.575			-5.082
55103.000			-35.575			-5.082
55204.000			-35.573			-5.082
55305.000			-35.572			-5.082
55404.000			-35.570			-5.081
55504.000			-35.569			-5.081
55605.000			-35.570			-5.081
55704.000			-35.569			-5.081
55803.000			-35.567			-5.081
55905.000			-35.565			-5.081
56004.000			-35.564			-5.081
56104.000			-35.563			-5.080
56205.000			-35.563			-5.080
56304.000			-35.562			-5.080
56404.000			-35.561			-5.080
56504.000			-35.560			-5.080
56604.000			-35.559			-5.080
56704.000			-35.557			-5.080
56805.000			-35.556			-5.079
56904.000			-35.556			-5.079
57004.000			-35.555			-5.079
57105.000			-35.553			-5.079
57203.000			-35.552			-5.079
57305.000			-35.552			-5.079
57404.000			-35.551			-5.079
57504.000			-35.551			-5.079
57605.000			-35.550			-5.079
57703.000			-35.548			-5.078
57804.000			-35.546			-5.078
57904.000			-35.545			-5.078
58004.000			-35.545			-5.078
58104.000			-35.543			-5.078
58205.000			-35.542			-5.077
58304.000			-35.542			-5.077
58403.000			-35.541			-5.077
58505.000			-35.540			-5.077
58604.000			-35.539			-5.077
58704.000			-35.538			-5.077
58805.000			-35.536			-5.077
58904.000			-35.535			-5.076
59004.000			-35.534			-5.076
59104.000			-35.532			-5.076
59204.000			-35.531			-5.076
59304.000			-35.531			-5.076
59405.000			-35.530			-5.076
59504.000			-35.529			-5.076
59604.000			-35.528			-5.075
59705.000			-35.527			-5.075
59803.000			-35.526			-5.075
59904.000			-35.525			-5.075
60005.000			-35.525			-5.075
60104.000			-35.523			-5.075
60204.000			-35.520			-5.074
60305.000			-35.519			-5.074
60404.000			-35.518			-5.074
60503.000			-35.517			-5.074
60604.000			-35.517			-5.074
60704.000			-35.516			-5.074
60805.000			-35.516			-5.074
60904.000			-35.514			-5.073
61004.000			-35.513			-5.073
61105.000			-35.512			-5.073
61203.000			-35.511			-5.073
61304.000			-35.511			-5.073
61405.000			-35.510			-5.073
61504.000			-35.510			-5.073
61604.000			-35.509			-5.073
61705.000			-35.506			-5.072
61804.000			-35.506			-5.072
61903.000			-35.504			-5.072
62005.000			-35.503			-5.072
62104.000			-35.503			-5.072
62204.000			-35.503			-5.072
62305.000			-35.502			-5.072
62403.000			-35.501			-5.072
62504.000			-35.499			-5.071
62605.000			-35.499			-5.071
62704.000			-35.498			-5.071
62804.000			-35.496			-5.071
62905.000			-35.495			-5.071
63004.000			-35.495			-5.071
63103.000			-35.494			-5.071
63205.000			-35.493			-5.070
63304.000			-35.492			-5.070
63404.000			-35.491			-5.070
63505.000			-35.490			-5.070
63604.000			-35.489			-5.070
63705.000			-35.488			-5.070
63803.000			-35.488			-5.070
63904.000			-35.485			-5.069
64004.000			-35.484			-5.069
64104.000			-35.484			-5.069
64204.000			-35.483			-5.069
64305.000			-35.482			-5.069
64404.000			-35.481			-5.069
64503.000			-35.481			-5.069
64605.000			-35.480			-5.069
64704.000			-35.478			-5.068
64804.000			-35.477			-5.068
64905.000			-35.477			-5.068
65004.000			-35.476			-5.068
65104.000			-35.475			-5.068
65204.000			-35.474			-5.068
65304.000			-35.473			-5.068
65404.000			-35.473			-5.068
65505.000			-35.472			-5.067
65604.000			-35.471			-5.067
65704.000			-35.469			-5.067
65805.000			-35.468			-5.067
65903.000			-35.468			-5.067
66004.000			-35.467			-5.067
66104.000			-35.465			-5.066
66204.000			-35.465			-5.066
66304.000			-35.464			-5.066
66405.000			-35.463			-5.066
66504.000			-35.462			-5.066
66604.000			-35.462			-5.066
66705.000			-35.461			-5.066
66803.000			-35.460			-5.066
66905.000			-35.459			-5.066
67004.000			-35.459			-5.066
67104.000			-35.457			-5.065
67205.000			-35.455			-5.065
67304.000			-35.455			-5.065
67404.000			-35.455			-5.065
67504.000			-35.452			-5.065
67604.000			-35.452			-5.065
67704.000			-35.453			-5.065
67805.000			-35.452			-5.065
67904.000			-35.450			-5.064
68004.000			-35.449			-5.064
68105.000			-35.449			-5.064
68203.000			-35.447			-5.064
68304.000			-35.446			-5.064
68405.000			-35.445			-5.064
68504.000			-35.444			-5.063
68604.000			-35.443			-5.063
68705.000			-35.443			-5.063
