# Acquired on 30/01/2024 10:31:10 
# SPIDER: Creep_-10mm_HM077x145x38AA-2
# CREEP MEASUREMENT

# time [ms]		force [N]		stiffness [N/mm]
0.000			59.312			-5.931
104.000			59.937			-5.994
205.000			59.910			-5.991
304.000			59.615			-5.962
404.000			59.438			-5.944
505.000			59.311			-5.931
604.000			59.107			-5.911
704.000			59.022			-5.902
804.000			58.947			-5.895
904.000			58.878			-5.888
1004.000			58.813			-5.881
1105.000			58.752			-5.875
1204.000			58.698			-5.870
1304.000			58.645			-5.865
1405.000			58.550			-5.855
1504.000			58.505			-5.851
1605.000			58.462			-5.846
1704.000			58.423			-5.842
1804.000			58.384			-5.838
1905.000			58.349			-5.835
2003.000			58.315			-5.831
2104.000			58.248			-5.825
2205.000			58.216			-5.822
2304.000			58.188			-5.819
2404.000			58.158			-5.816
2505.000			58.129			-5.813
2604.000			58.102			-5.810
2703.000			58.076			-5.808
2805.000			58.025			-5.802
2904.000			58.001			-5.800
3004.000			57.978			-5.798
3105.000			57.954			-5.795
3204.000			57.933			-5.793
3304.000			57.910			-5.791
3405.000			57.888			-5.789
3504.000			57.847			-5.785
3604.000			57.827			-5.783
3705.000			57.808			-5.781
3804.000			57.790			-5.779
3903.000			57.771			-5.777
4005.000			57.752			-5.775
4104.000			57.735			-5.773
4204.000			57.717			-5.772
4305.000			57.682			-5.768
4404.000			57.666			-5.767
4504.000			57.649			-5.765
4603.000			57.632			-5.763
4704.000			57.616			-5.762
4805.000			57.602			-5.760
4904.000			57.587			-5.759
5004.000			57.557			-5.756
5105.000			57.543			-5.754
5204.000			57.528			-5.753
5303.000			57.513			-5.751
5405.000			57.500			-5.750
5504.000			57.487			-5.749
5604.000			57.474			-5.747
5705.000			57.448			-5.745
5804.000			57.435			-5.743
5904.000			57.422			-5.742
6004.000			57.409			-5.741
6104.000			57.396			-5.740
6204.000			57.384			-5.738
6305.000			57.373			-5.737
6404.000			57.361			-5.736
6504.000			57.336			-5.734
6605.000			57.326			-5.733
6703.000			57.314			-5.731
6804.000			57.303			-5.730
6905.000			57.294			-5.729
7004.000			57.282			-5.728
7104.000			57.270			-5.727
7204.000			57.248			-5.725
7304.000			57.239			-5.724
7404.000			57.229			-5.723
7505.000			57.219			-5.722
7604.000			57.208			-5.721
7704.000			57.198			-5.720
7805.000			57.189			-5.719
7903.000			57.169			-5.717
8005.000			57.159			-5.716
8104.000			57.150			-5.715
8204.000			57.140			-5.714
8305.000			57.132			-5.713
8404.000			57.123			-5.712
8504.000			57.113			-5.711
8604.000			57.094			-5.709
8704.000			57.085			-5.709
8804.000			57.078			-5.708
8905.000			57.070			-5.707
9004.000			57.060			-5.706
9103.000			57.053			-5.705
9205.000			57.045			-5.704
9304.000			57.036			-5.704
9404.000			57.019			-5.702
9505.000			57.011			-5.701
9604.000			57.003			-5.700
9704.000			56.994			-5.699
9804.000			56.986			-5.699
9904.000			56.978			-5.698
10004.000			56.971			-5.697
10105.000			56.956			-5.696
10204.000			56.948			-5.695
10304.000			56.939			-5.694
10405.000			56.932			-5.693
10503.000			56.926			-5.693
10604.000			56.919			-5.692
10705.000			56.911			-5.691
10804.000			56.896			-5.690
10904.000			56.890			-5.689
11004.000			56.882			-5.688
11104.000			56.875			-5.688
11204.000			56.867			-5.687
11304.000			56.861			-5.686
11404.000			56.855			-5.686
11505.000			56.848			-5.685
11604.000			56.834			-5.683
11704.000			56.827			-5.683
11805.000			56.821			-5.682
11903.000			56.814			-5.681
12004.000			56.807			-5.681
12105.000			56.800			-5.680
12204.000			56.794			-5.679
12304.000			56.783			-5.678
12405.000			56.776			-5.678
12504.000			56.769			-5.677
12603.000			56.764			-5.676
12705.000			56.756			-5.676
12804.000			56.749			-5.675
12904.000			56.743			-5.674
13005.000			56.732			-5.673
13104.000			56.726			-5.673
13204.000			56.720			-5.672
13304.000			56.714			-5.671
13404.000			56.708			-5.671
13504.000			56.703			-5.670
13605.000			56.696			-5.670
13704.000			56.685			-5.668
13804.000			56.679			-5.668
13905.000			56.674			-5.667
14003.000			56.669			-5.667
14104.000			56.661			-5.666
14205.000			56.656			-5.666
14304.000			56.651			-5.665
14405.000			56.645			-5.665
14504.000			56.633			-5.663
14604.000			56.629			-5.663
14704.000			56.623			-5.662
14804.000			56.617			-5.662
14904.000			56.612			-5.661
15005.000			56.606			-5.661
15104.000			56.600			-5.660
15204.000			56.589			-5.659
15305.000			56.584			-5.658
15403.000			56.579			-5.658
15504.000			56.573			-5.657
15605.000			56.568			-5.657
15704.000			56.563			-5.656
15804.000			56.559			-5.656
15904.000			56.548			-5.655
16004.000			56.543			-5.654
16103.000			56.539			-5.654
16205.000			56.534			-5.653
16304.000			56.528			-5.653
16404.000			56.523			-5.652
16505.000			56.518			-5.652
16604.000			56.514			-5.651
16704.000			56.505			-5.650
16804.000			56.500			-5.650
16904.000			56.496			-5.650
17004.000			56.490			-5.649
17105.000			56.486			-5.649
17204.000			56.480			-5.648
17303.000			56.475			-5.648
17405.000			56.466			-5.647
17504.000			56.461			-5.646
17605.000			56.456			-5.646
17704.000			56.451			-5.645
17804.000			56.447			-5.645
17905.000			56.444			-5.644
18003.000			56.439			-5.644
18104.000			56.429			-5.643
18205.000			56.425			-5.642
18304.000			56.420			-5.642
18404.000			56.416			-5.642
18505.000			56.412			-5.641
18604.000			56.409			-5.641
18703.000			56.404			-5.640
18805.000			56.394			-5.639
18904.000			56.391			-5.639
19004.000			56.386			-5.639
19105.000			56.381			-5.638
19204.000			56.378			-5.638
19304.000			56.374			-5.637
19404.000			56.370			-5.637
19504.000			56.365			-5.637
19603.000			56.357			-5.636
19705.000			56.352			-5.635
19804.000			56.348			-5.635
19904.000			56.345			-5.634
20005.000			56.340			-5.634
20103.000			56.336			-5.634
20204.000			56.332			-5.633
20305.000			56.324			-5.632
20404.000			56.320			-5.632
20504.000			56.316			-5.632
20604.000			56.312			-5.631
20704.000			56.308			-5.631
20804.000			56.304			-5.630
20904.000			56.302			-5.630
21004.000			56.293			-5.629
21105.000			56.289			-5.629
21204.000			56.285			-5.629
21304.000			56.281			-5.628
21405.000			56.278			-5.628
21503.000			56.274			-5.627
21604.000			56.270			-5.627
21705.000			56.263			-5.626
21804.000			56.259			-5.626
21904.000			56.255			-5.626
22005.000			56.252			-5.625
22104.000			56.247			-5.625
22203.000			56.244			-5.624
22305.000			56.241			-5.624
22404.000			56.237			-5.624
22504.000			56.229			-5.623
22605.000			56.225			-5.623
22704.000			56.221			-5.622
22804.000			56.218			-5.622
22904.000			56.214			-5.621
23004.000			56.211			-5.621
23104.000			56.208			-5.621
23205.000			56.201			-5.620
23304.000			56.197			-5.620
23403.000			56.194			-5.619
23505.000			56.191			-5.619
23604.000			56.187			-5.619
23704.000			56.184			-5.618
23805.000			56.180			-5.618
23904.000			56.172			-5.617
24005.000			56.169			-5.617
24103.000			56.165			-5.617
24204.000			56.162			-5.616
24305.000			56.159			-5.616
24404.000			56.156			-5.616
24504.000			56.152			-5.615
24605.000			56.148			-5.615
24704.000			56.142			-5.614
24803.000			56.138			-5.614
24905.000			56.135			-5.614
25004.000			56.132			-5.613
25104.000			56.129			-5.613
25205.000			56.126			-5.613
25304.000			56.123			-5.612
25404.000			56.116			-5.612
25504.000			56.112			-5.611
25604.000			56.109			-5.611
25704.000			56.106			-5.611
25805.000			56.103			-5.610
25904.000			56.100			-5.610
26004.000			56.096			-5.610
26105.000			56.089			-5.609
26203.000			56.086			-5.609
26304.000			56.083			-5.608
26405.000			56.080			-5.608
26504.000			56.078			-5.608
26604.000			56.074			-5.607
26704.000			56.070			-5.607
26804.000			56.065			-5.607
26903.000			56.061			-5.606
27005.000			56.058			-5.606
27104.000			56.055			-5.605
27205.000			56.052			-5.605
27304.000			56.049			-5.605
27404.000			56.046			-5.605
27505.000			56.043			-5.604
27603.000			56.036			-5.604
27704.000			56.034			-5.603
27805.000			56.031			-5.603
27904.000			56.029			-5.603
28004.000			56.025			-5.603
28104.000			56.023			-5.602
28204.000			56.021			-5.602
28304.000			56.013			-5.601
28405.000			56.010			-5.601
28504.000			56.009			-5.601
28604.000			56.006			-5.601
28705.000			56.002			-5.600
28803.000			55.999			-5.600
28904.000			55.996			-5.600
29005.000			55.990			-5.599
29104.000			55.987			-5.599
29204.000			55.984			-5.598
29305.000			55.981			-5.598
29404.000			55.978			-5.598
29504.000			55.976			-5.598
29605.000			55.974			-5.597
29703.000			55.971			-5.597
29804.000			55.966			-5.597
29905.000			55.962			-5.596
30004.000			55.960			-5.596
30104.000			55.957			-5.596
30204.000			55.955			-5.595
30304.000			55.952			-5.595
30404.000			55.949			-5.595
30504.000			55.943			-5.594
30604.000			55.940			-5.594
30705.000			55.937			-5.594
30804.000			55.935			-5.593
30904.000			55.933			-5.593
31005.000			55.930			-5.593
31103.000			55.926			-5.593
31204.000			55.921			-5.592
31305.000			55.918			-5.592
31404.000			55.915			-5.592
31504.000			55.913			-5.591
31605.000			55.911			-5.591
31704.000			55.909			-5.591
31803.000			55.905			-5.591
31905.000			55.900			-5.590
32004.000			55.896			-5.590
32104.000			55.894			-5.589
32205.000			55.892			-5.589
32304.000			55.889			-5.589
32404.000			55.888			-5.589
32504.000			55.884			-5.588
32604.000			55.881			-5.588
32704.000			55.877			-5.588
32805.000			55.874			-5.587
32904.000			55.871			-5.587
33004.000			55.868			-5.587
33105.000			55.867			-5.587
33203.000			55.865			-5.586
33304.000			55.861			-5.586
33405.000			55.856			-5.586
33504.000			55.854			-5.585
33605.000			55.852			-5.585
33704.000			55.849			-5.585
33804.000			55.846			-5.585
33904.000			55.843			-5.584
34004.000			55.840			-5.584
34104.000			55.837			-5.584
34205.000			55.834			-5.583
34304.000			55.831			-5.583
34404.000			55.828			-5.583
34505.000			55.826			-5.583
34603.000			55.823			-5.582
34704.000			55.820			-5.582
34805.000			55.817			-5.582
34904.000			55.815			-5.581
35004.000			55.812			-5.581
35104.000			55.810			-5.581
35204.000			55.808			-5.581
35303.000			55.804			-5.580
35405.000			55.802			-5.580
35504.000			55.799			-5.580
35604.000			55.796			-5.580
35705.000			55.793			-5.579
35804.000			55.791			-5.579
35904.000			55.788			-5.579
36004.000			55.785			-5.579
36104.000			55.783			-5.578
36204.000			55.780			-5.578
36305.000			55.777			-5.578
36404.000			55.774			-5.577
36504.000			55.771			-5.577
36605.000			55.769			-5.577
36703.000			55.768			-5.577
36805.000			55.766			-5.577
36904.000			55.762			-5.576
37004.000			55.758			-5.576
37105.000			55.756			-5.576
37204.000			55.753			-5.575
37304.000			55.751			-5.575
37404.000			55.749			-5.575
37504.000			55.747			-5.575
37604.000			55.744			-5.574
37705.000			55.740			-5.574
37804.000			55.736			-5.574
37904.000			55.734			-5.573
38005.000			55.732			-5.573
38103.000			55.731			-5.573
38204.000			55.728			-5.573
38305.000			55.726			-5.573
38404.000			55.723			-5.572
38504.000			55.720			-5.572
38605.000			55.718			-5.572
38704.000			55.714			-5.571
38803.000			55.712			-5.571
38905.000			55.709			-5.571
39004.000			55.708			-5.571
39104.000			55.707			-5.571
39205.000			55.703			-5.570
39304.000			55.701			-5.570
39404.000			55.699			-5.570
39504.000			55.697			-5.570
39604.000			55.694			-5.569
39704.000			55.691			-5.569
39804.000			55.687			-5.569
39904.000			55.684			-5.568
40005.000			55.682			-5.568
40104.000			55.681			-5.568
40203.000			55.679			-5.568
40305.000			55.677			-5.568
40404.000			55.674			-5.567
40504.000			55.671			-5.567
40605.000			55.669			-5.567
40704.000			55.668			-5.567
40804.000			55.664			-5.566
40904.000			55.663			-5.566
41004.000			55.660			-5.566
41104.000			55.658			-5.566
41205.000			55.656			-5.566
41304.000			55.655			-5.565
41403.000			55.649			-5.565
41505.000			55.647			-5.565
41604.000			55.646			-5.565
41704.000			55.644			-5.564
41805.000			55.642			-5.564
41904.000			55.638			-5.564
42004.000			55.637			-5.564
42105.000			55.633			-5.563
42204.000			55.630			-5.563
42303.000			55.628			-5.563
42405.000			55.627			-5.563
42504.000			55.625			-5.563
42604.000			55.622			-5.562
42705.000			55.620			-5.562
42803.000			55.620			-5.562
42904.000			55.615			-5.561
43005.000			55.613			-5.561
43104.000			55.611			-5.561
43205.000			55.609			-5.561
43304.000			55.606			-5.561
43404.000			55.605			-5.560
43504.000			55.602			-5.560
43604.000			55.599			-5.560
43704.000			55.597			-5.560
43805.000			55.594			-5.559
43904.000			55.591			-5.559
44004.000			55.590			-5.559
44105.000			55.589			-5.559
44204.000			55.587			-5.559
44304.000			55.584			-5.558
44404.000			55.583			-5.558
44504.000			55.581			-5.558
44604.000			55.578			-5.558
44705.000			55.575			-5.558
44804.000			55.574			-5.557
44904.000			55.572			-5.557
45005.000			55.569			-5.557
45103.000			55.566			-5.557
45204.000			55.564			-5.556
45305.000			55.561			-5.556
45404.000			55.559			-5.556
45504.000			55.558			-5.556
45605.000			55.557			-5.556
45704.000			55.555			-5.555
45803.000			55.552			-5.555
45905.000			55.549			-5.555
46004.000			55.546			-5.555
46104.000			55.544			-5.554
46205.000			55.543			-5.554
46304.000			55.541			-5.554
46405.000			55.539			-5.554
46503.000			55.535			-5.553
46604.000			55.534			-5.553
46705.000			55.532			-5.553
46804.000			55.530			-5.553
46904.000			55.529			-5.553
47005.000			55.527			-5.553
47104.000			55.525			-5.553
47203.000			55.522			-5.552
47305.000			55.519			-5.552
47404.000			55.516			-5.552
47504.000			55.515			-5.551
47605.000			55.513			-5.551
47704.000			55.511			-5.551
47804.000			55.510			-5.551
47904.000			55.507			-5.551
48004.000			55.507			-5.551
48104.000			55.503			-5.550
48205.000			55.501			-5.550
48304.000			55.499			-5.550
48404.000			55.499			-5.550
48505.000			55.498			-5.550
48603.000			55.495			-5.549
48704.000			55.491			-5.549
48805.000			55.489			-5.549
48904.000			55.487			-5.549
49004.000			55.487			-5.549
49105.000			55.485			-5.548
49204.000			55.482			-5.548
49303.000			55.481			-5.548
49405.000			55.477			-5.548
49504.000			55.475			-5.547
49605.000			55.473			-5.547
49704.000			55.471			-5.547
49804.000			55.470			-5.547
49905.000			55.468			-5.547
50003.000			55.467			-5.547
50104.000			55.464			-5.546
50205.000			55.462			-5.546
50304.000			55.459			-5.546
50404.000			55.457			-5.546
50505.000			55.456			-5.546
50604.000			55.455			-5.546
50703.000			55.453			-5.545
50805.000			55.449			-5.545
50904.000			55.448			-5.545
51004.000			55.447			-5.545
51105.000			55.445			-5.544
51204.000			55.442			-5.544
51304.000			55.439			-5.544
51404.000			55.438			-5.544
51504.000			55.437			-5.544
51604.000			55.434			-5.543
51705.000			55.432			-5.543
51804.000			55.430			-5.543
51903.000			55.429			-5.543
52005.000			55.427			-5.543
52104.000			55.426			-5.543
52204.000			55.424			-5.542
52305.000			55.421			-5.542
52404.000			55.419			-5.542
52504.000			55.417			-5.542
52603.000			55.415			-5.542
52704.000			55.414			-5.541
52805.000			55.413			-5.541
52904.000			55.410			-5.541
53004.000			55.407			-5.541
53105.000			55.406			-5.541
53204.000			55.404			-5.540
53303.000			55.402			-5.540
53405.000			55.400			-5.540
53504.000			55.399			-5.540
53604.000			55.398			-5.540
53705.000			55.397			-5.540
53804.000			55.391			-5.539
53904.000			55.391			-5.539
54004.000			55.390			-5.539
54104.000			55.388			-5.539
54204.000			55.386			-5.539
54305.000			55.385			-5.538
54404.000			55.383			-5.538
54504.000			55.380			-5.538
54605.000			55.379			-5.538
54703.000			55.378			-5.538
54804.000			55.376			-5.538
54905.000			55.374			-5.537
55004.000			55.371			-5.537
55104.000			55.369			-5.537
55205.000			55.366			-5.537
55304.000			55.365			-5.537
55403.000			55.363			-5.536
55505.000			55.362			-5.536
55604.000			55.360			-5.536
55704.000			55.358			-5.536
55805.000			55.357			-5.536
55904.000			55.355			-5.536
56005.000			55.352			-5.535
56103.000			55.351			-5.535
56204.000			55.349			-5.535
56305.000			55.347			-5.535
56404.000			55.346			-5.535
56504.000			55.344			-5.534
56605.000			55.343			-5.534
56704.000			55.339			-5.534
56803.000			55.338			-5.534
56905.000			55.337			-5.534
57004.000			55.335			-5.534
57104.000			55.335			-5.533
57205.000			55.333			-5.533
57304.000			55.331			-5.533
57404.000			55.328			-5.533
57504.000			55.327			-5.533
57604.000			55.326			-5.533
57704.000			55.324			-5.532
57805.000			55.321			-5.532
57904.000			55.319			-5.532
58003.000			55.318			-5.532
58105.000			55.316			-5.532
58204.000			55.315			-5.532
58304.000			55.313			-5.531
58405.000			55.311			-5.531
58504.000			55.309			-5.531
58604.000			55.308			-5.531
58704.000			55.306			-5.531
58804.000			55.305			-5.531
58904.000			55.303			-5.530
59004.000			55.301			-5.530
59104.000			55.300			-5.530
59205.000			55.298			-5.530
59304.000			55.296			-5.530
59403.000			55.294			-5.529
59505.000			55.293			-5.529
59604.000			55.290			-5.529
59704.000			55.288			-5.529
59805.000			55.286			-5.529
59904.000			55.286			-5.529
60004.000			55.285			-5.529
60104.000			55.283			-5.528
60204.000			55.281			-5.528
60304.000			55.278			-5.528
60405.000			55.278			-5.528
60504.000			55.277			-5.528
60604.000			55.274			-5.527
60705.000			55.273			-5.527
60803.000			55.272			-5.527
60904.000			55.270			-5.527
61005.000			55.268			-5.527
61104.000			55.266			-5.527
61204.000			55.265			-5.527
61305.000			55.263			-5.526
61404.000			55.261			-5.526
61503.000			55.260			-5.526
61605.000			55.259			-5.526
61704.000			55.258			-5.526
61804.000			55.256			-5.526
61905.000			55.254			-5.525
62004.000			55.251			-5.525
62104.000			55.250			-5.525
62203.000			55.249			-5.525
62304.000			55.248			-5.525
62405.000			55.247			-5.525
62504.000			55.244			-5.524
62604.000			55.240			-5.524
62705.000			55.239			-5.524
62804.000			55.238			-5.524
62903.000			55.236			-5.524
63005.000			55.235			-5.523
63104.000			55.234			-5.523
63204.000			55.231			-5.523
63305.000			55.230			-5.523
63404.000			55.229			-5.523
63504.000			55.228			-5.523
63604.000			55.226			-5.523
63704.000			55.224			-5.522
63804.000			55.223			-5.522
63905.000			55.220			-5.522
64004.000			55.219			-5.522
64104.000			55.217			-5.522
64205.000			55.216			-5.522
64303.000			55.215			-5.521
64404.000			55.213			-5.521
64505.000			55.212			-5.521
64604.000			55.211			-5.521
64704.000			55.208			-5.521
64804.000			55.206			-5.521
64904.000			55.206			-5.521
65003.000			55.205			-5.520
65105.000			55.203			-5.520
65204.000			55.201			-5.520
65304.000			55.199			-5.520
65405.000			55.198			-5.520
65503.000			55.196			-5.520
65605.000			55.194			-5.519
65704.000			55.193			-5.519
65804.000			55.192			-5.519
65905.000			55.191			-5.519
66004.000			55.189			-5.519
66104.000			55.185			-5.519
66204.000			55.184			-5.518
66304.000			55.183			-5.518
66404.000			55.182			-5.518
66505.000			55.181			-5.518
66604.000			55.180			-5.518
66704.000			55.179			-5.518
66805.000			55.176			-5.518
66903.000			55.175			-5.517
67004.000			55.173			-5.517
67104.000			55.171			-5.517
67204.000			55.170			-5.517
67304.000			55.169			-5.517
67405.000			55.167			-5.517
67504.000			55.166			-5.517
67604.000			55.165			-5.516
67705.000			55.163			-5.516
67803.000			55.161			-5.516
67904.000			55.160			-5.516
68005.000			55.159			-5.516
68104.000			55.157			-5.516
68204.000			55.156			-5.516
68305.000			55.153			-5.515
68404.000			55.151			-5.515
68503.000			55.151			-5.515
68605.000			55.150			-5.515
68704.000			55.149			-5.515
68805.000			55.146			-5.515
68904.000			55.145			-5.514
69004.000			55.142			-5.514
69105.000			55.141			-5.514
69203.000			55.140			-5.514
69304.000			55.140			-5.514
69405.000			55.138			-5.514
69504.000			55.137			-5.514
69604.000			55.136			-5.514
69705.000			55.135			-5.513
69804.000			55.132			-5.513
69903.000			55.131			-5.513
70005.000			55.130			-5.513
70104.000			55.128			-5.513
70204.000			55.126			-5.513
70305.000			55.125			-5.512
70404.000			55.124			-5.512
70504.000			55.121			-5.512
70604.000			55.120			-5.512
70704.000			55.118			-5.512
70804.000			55.117			-5.512
70905.000			55.116			-5.512
71004.000			55.115			-5.511
71103.000			55.114			-5.511
71205.000			55.112			-5.511
