# Acquired on 26/01/2024 16:23:51 
# SPIDER: Creep_-6mm_HM077x145x38AB-1
# CREEP MEASUREMENT

# time [ms]		force [N]		stiffness [N/mm]
1.000			20.502			-3.417
104.000			20.891			-3.482
204.000			20.950			-3.492
305.000			20.891			-3.482
403.000			20.839			-3.473
504.000			20.797			-3.466
605.000			20.727			-3.454
704.000			20.696			-3.449
804.000			20.670			-3.445
904.000			20.647			-3.441
1004.000			20.625			-3.437
1104.000			20.605			-3.434
1205.000			20.584			-3.431
1304.000			20.565			-3.428
1403.000			20.533			-3.422
1505.000			20.518			-3.420
1604.000			20.504			-3.417
1705.000			20.490			-3.415
1804.000			20.476			-3.413
1904.000			20.463			-3.411
2005.000			20.451			-3.408
2103.000			20.426			-3.404
2204.000			20.416			-3.403
2305.000			20.405			-3.401
2404.000			20.394			-3.399
2504.000			20.384			-3.397
2604.000			20.375			-3.396
2704.000			20.365			-3.394
2804.000			20.346			-3.391
2905.000			20.338			-3.390
3004.000			20.329			-3.388
3104.000			20.319			-3.387
3205.000			20.312			-3.385
3303.000			20.304			-3.384
3404.000			20.296			-3.383
3505.000			20.280			-3.380
3604.000			20.274			-3.379
3704.000			20.267			-3.378
3804.000			20.259			-3.377
3904.000			20.252			-3.375
4004.000			20.245			-3.374
4105.000			20.239			-3.373
4204.000			20.232			-3.372
4304.000			20.218			-3.370
4405.000			20.213			-3.369
4503.000			20.208			-3.368
4604.000			20.201			-3.367
4705.000			20.195			-3.366
4804.000			20.190			-3.365
4905.000			20.184			-3.364
5003.000			20.171			-3.362
5104.000			20.166			-3.361
5205.000			20.161			-3.360
5304.000			20.156			-3.359
5404.000			20.151			-3.358
5505.000			20.146			-3.358
5604.000			20.141			-3.357
5703.000			20.129			-3.355
5805.000			20.125			-3.354
5904.000			20.120			-3.353
6004.000			20.115			-3.353
6105.000			20.109			-3.352
6203.000			20.105			-3.351
6304.000			20.101			-3.350
6405.000			20.092			-3.349
6504.000			20.086			-3.348
6604.000			20.082			-3.347
6705.000			20.079			-3.346
6804.000			20.074			-3.346
6903.000			20.069			-3.345
7005.000			20.065			-3.344
7104.000			20.061			-3.344
7204.000			20.053			-3.342
7305.000			20.048			-3.341
7403.000			20.044			-3.341
7504.000			20.039			-3.340
7605.000			20.035			-3.339
7704.000			20.032			-3.339
7804.000			20.029			-3.338
7905.000			20.021			-3.337
8004.000			20.018			-3.336
8103.000			20.013			-3.336
8204.000			20.008			-3.335
8304.000			20.004			-3.334
8405.000			20.001			-3.333
8504.000			19.998			-3.333
8603.000			19.991			-3.332
8705.000			19.987			-3.331
8804.000			19.984			-3.331
8904.000			19.979			-3.330
9005.000			19.977			-3.329
9104.000			19.974			-3.329
9204.000			19.971			-3.328
9304.000			19.967			-3.328
9404.000			19.959			-3.326
9504.000			19.957			-3.326
9605.000			19.954			-3.326
9704.000			19.951			-3.325
9804.000			19.948			-3.325
9905.000			19.944			-3.324
10003.000			19.941			-3.323
10104.000			19.935			-3.323
10205.000			19.932			-3.322
10304.000			19.930			-3.322
10404.000			19.926			-3.321
10505.000			19.923			-3.320
10604.000			19.920			-3.320
10703.000			19.918			-3.320
10805.000			19.913			-3.319
10904.000			19.909			-3.318
11004.000			19.906			-3.318
11105.000			19.904			-3.317
11204.000			19.901			-3.317
11305.000			19.899			-3.316
11403.000			19.896			-3.316
11504.000			19.890			-3.315
11605.000			19.887			-3.314
11704.000			19.884			-3.314
11804.000			19.881			-3.314
11905.000			19.879			-3.313
12004.000			19.876			-3.313
12103.000			19.873			-3.312
12205.000			19.872			-3.312
12304.000			19.867			-3.311
12404.000			19.865			-3.311
12505.000			19.862			-3.310
12604.000			19.859			-3.310
12704.000			19.857			-3.309
12804.000			19.855			-3.309
12904.000			19.851			-3.309
13004.000			19.849			-3.308
13105.000			19.847			-3.308
13204.000			19.845			-3.307
13304.000			19.842			-3.307
13405.000			19.840			-3.307
13503.000			19.838			-3.306
13604.000			19.836			-3.306
13705.000			19.830			-3.305
13804.000			19.828			-3.305
13904.000			19.826			-3.304
14005.000			19.825			-3.304
14104.000			19.823			-3.304
14203.000			19.820			-3.303
14305.000			19.818			-3.303
14404.000			19.814			-3.302
14505.000			19.812			-3.302
14604.000			19.809			-3.302
14704.000			19.807			-3.301
14805.000			19.805			-3.301
14903.000			19.803			-3.301
15004.000			19.802			-3.300
15105.000			19.799			-3.300
15204.000			19.795			-3.299
15304.000			19.793			-3.299
15405.000			19.790			-3.298
15504.000			19.788			-3.298
15603.000			19.787			-3.298
15705.000			19.785			-3.297
15804.000			19.782			-3.297
15904.000			19.778			-3.296
16005.000			19.775			-3.296
16104.000			19.774			-3.296
16204.000			19.772			-3.295
16304.000			19.769			-3.295
16404.000			19.768			-3.295
16504.000			19.766			-3.294
16605.000			19.762			-3.294
16704.000			19.759			-3.293
16804.000			19.757			-3.293
16905.000			19.755			-3.292
17003.000			19.753			-3.292
17104.000			19.752			-3.292
17205.000			19.750			-3.292
17304.000			19.748			-3.291
17404.000			19.745			-3.291
17505.000			19.743			-3.290
17604.000			19.741			-3.290
17703.000			19.739			-3.290
17804.000			19.736			-3.289
17904.000			19.734			-3.289
18005.000			19.732			-3.289
18104.000			19.729			-3.288
18204.000			19.727			-3.288
18305.000			19.725			-3.288
18403.000			19.723			-3.287
18504.000			19.721			-3.287
18605.000			19.719			-3.287
18704.000			19.718			-3.286
18804.000			19.714			-3.286
18905.000			19.712			-3.285
19004.000			19.710			-3.285
19103.000			19.709			-3.285
19205.000			19.708			-3.285
19304.000			19.706			-3.284
19404.000			19.705			-3.284
19505.000			19.701			-3.284
19604.000			19.700			-3.283
19704.000			19.698			-3.283
19804.000			19.695			-3.283
19904.000			19.694			-3.282
20004.000			19.691			-3.282
20105.000			19.690			-3.282
20204.000			19.689			-3.281
20304.000			19.686			-3.281
20405.000			19.685			-3.281
20503.000			19.682			-3.280
20604.000			19.680			-3.280
20705.000			19.679			-3.280
20804.000			19.678			-3.280
20905.000			19.677			-3.279
21004.000			19.672			-3.279
21104.000			19.671			-3.278
21204.000			19.670			-3.278
21304.000			19.668			-3.278
21404.000			19.666			-3.278
21505.000			19.665			-3.277
21604.000			19.663			-3.277
21704.000			19.661			-3.277
21805.000			19.659			-3.277
21903.000			19.658			-3.276
22004.000			19.656			-3.276
22105.000			19.655			-3.276
22204.000			19.653			-3.276
22304.000			19.652			-3.275
22405.000			19.649			-3.275
22504.000			19.647			-3.275
22603.000			19.646			-3.274
22705.000			19.645			-3.274
22804.000			19.643			-3.274
22904.000			19.642			-3.274
23005.000			19.641			-3.273
23104.000			19.638			-3.273
23204.000			19.636			-3.273
23304.000			19.635			-3.272
23404.000			19.634			-3.272
23504.000			19.632			-3.272
23605.000			19.630			-3.272
23704.000			19.629			-3.271
23804.000			19.627			-3.271
23905.000			19.625			-3.271
24003.000			19.624			-3.271
24105.000			19.623			-3.270
24204.000			19.621			-3.270
24304.000			19.620			-3.270
24405.000			19.619			-3.270
24504.000			19.616			-3.269
24604.000			19.614			-3.269
24704.000			19.613			-3.269
24804.000			19.612			-3.269
24904.000			19.611			-3.268
25005.000			19.609			-3.268
25104.000			19.607			-3.268
25203.000			19.606			-3.268
25305.000			19.603			-3.267
25404.000			19.602			-3.267
25504.000			19.601			-3.267
25605.000			19.599			-3.266
25704.000			19.598			-3.266
25804.000			19.597			-3.266
25905.000			19.595			-3.266
26004.000			19.594			-3.266
26103.000			19.592			-3.265
26205.000			19.591			-3.265
26304.000			19.589			-3.265
26404.000			19.588			-3.265
26505.000			19.587			-3.264
26604.000			19.585			-3.264
26704.000			19.582			-3.264
26804.000			19.581			-3.264
26904.000			19.580			-3.263
27004.000			19.579			-3.263
27105.000			19.578			-3.263
27204.000			19.577			-3.263
27305.000			19.575			-3.263
27404.000			19.574			-3.262
27503.000			19.572			-3.262
27605.000			19.571			-3.262
27704.000			19.569			-3.261
27804.000			19.567			-3.261
27905.000			19.566			-3.261
28004.000			19.565			-3.261
28104.000			19.564			-3.261
28204.000			19.563			-3.260
28304.000			19.561			-3.260
28404.000			19.560			-3.260
28505.000			19.558			-3.260
28604.000			19.558			-3.260
28704.000			19.556			-3.259
28805.000			19.555			-3.259
28903.000			19.554			-3.259
29004.000			19.552			-3.259
29105.000			19.550			-3.258
29204.000			19.549			-3.258
29304.000			19.548			-3.258
29405.000			19.547			-3.258
29504.000			19.546			-3.258
29603.000			19.544			-3.257
29705.000			19.542			-3.257
29804.000			19.541			-3.257
29904.000			19.539			-3.257
30005.000			19.538			-3.256
30104.000			19.537			-3.256
30204.000			19.536			-3.256
30304.000			19.534			-3.256
30404.000			19.532			-3.255
30505.000			19.532			-3.255
30604.000			19.531			-3.255
30704.000			19.529			-3.255
30805.000			19.528			-3.255
30904.000			19.528			-3.255
31003.000			19.526			-3.254
31105.000			19.525			-3.254
31204.000			19.523			-3.254
31304.000			19.522			-3.254
31405.000			19.520			-3.253
31503.000			19.520			-3.253
31604.000			19.519			-3.253
31705.000			19.517			-3.253
31804.000			19.516			-3.253
31904.000			19.515			-3.253
32005.000			19.514			-3.252
32104.000			19.511			-3.252
32203.000			19.510			-3.252
32305.000			19.510			-3.252
32404.000			19.510			-3.252
32504.000			19.507			-3.251
32605.000			19.506			-3.251
32704.000			19.506			-3.251
32804.000			19.505			-3.251
32904.000			19.503			-3.250
33004.000			19.502			-3.250
33104.000			19.501			-3.250
33205.000			19.500			-3.250
33304.000			19.500			-3.250
33404.000			19.497			-3.249
33505.000			19.497			-3.249
33603.000			19.495			-3.249
33705.000			19.493			-3.249
33804.000			19.492			-3.249
33904.000			19.493			-3.249
34005.000			19.491			-3.249
34104.000			19.489			-3.248
34204.000			19.488			-3.248
34304.000			19.487			-3.248
34404.000			19.486			-3.248
34504.000			19.485			-3.248
34605.000			19.485			-3.247
34704.000			19.484			-3.247
34804.000			19.480			-3.247
34905.000			19.479			-3.247
35003.000			19.479			-3.246
35104.000			19.478			-3.246
35205.000			19.478			-3.246
35304.000			19.477			-3.246
35404.000			19.476			-3.246
35505.000			19.473			-3.245
35604.000			19.472			-3.245
35703.000			19.471			-3.245
35805.000			19.470			-3.245
35904.000			19.469			-3.245
36004.000			19.469			-3.245
36105.000			19.467			-3.245
36204.000			19.466			-3.244
36304.000			19.464			-3.244
36404.000			19.463			-3.244
36504.000			19.462			-3.244
36604.000			19.461			-3.244
36705.000			19.460			-3.243
36804.000			19.459			-3.243
36905.000			19.459			-3.243
37004.000			19.458			-3.243
37103.000			19.456			-3.243
37205.000			19.454			-3.242
37304.000			19.453			-3.242
37404.000			19.454			-3.242
37505.000			19.453			-3.242
37604.000			19.453			-3.242
37704.000			19.449			-3.241
37804.000			19.449			-3.242
37904.000			19.449			-3.241
38004.000			19.447			-3.241
38105.000			19.446			-3.241
38204.000			19.446			-3.241
38304.000			19.444			-3.241
38405.000			19.442			-3.240
38503.000			19.442			-3.240
38604.000			19.440			-3.240
38705.000			19.439			-3.240
38804.000			19.439			-3.240
38904.000			19.439			-3.240
39005.000			19.437			-3.240
39104.000			19.436			-3.239
39203.000			19.437			-3.239
39305.000			19.435			-3.239
39404.000			19.433			-3.239
39504.000			19.431			-3.238
39605.000			19.431			-3.238
39704.000			19.430			-3.238
39804.000			19.429			-3.238
39904.000			19.427			-3.238
40004.000			19.426			-3.238
40103.000			19.426			-3.238
40204.000			19.425			-3.238
40304.000			19.424			-3.237
40405.000			19.422			-3.237
40504.000			19.421			-3.237
40603.000			19.419			-3.237
40705.000			19.420			-3.237
40804.000			19.419			-3.237
40904.000			19.418			-3.236
41005.000			19.418			-3.236
41104.000			19.416			-3.236
41204.000			19.414			-3.236
41304.000			19.413			-3.236
41404.000			19.412			-3.235
41504.000			19.411			-3.235
41605.000			19.411			-3.235
41704.000			19.410			-3.235
41804.000			19.409			-3.235
41905.000			19.408			-3.235
42003.000			19.407			-3.235
42104.000			19.407			-3.234
42205.000			19.406			-3.234
42304.000			19.406			-3.234
42404.000			19.404			-3.234
42505.000			19.403			-3.234
42604.000			19.403			-3.234
42703.000			19.401			-3.234
42805.000			19.400			-3.233
42904.000			19.400			-3.233
43004.000			19.400			-3.233
43105.000			19.398			-3.233
43204.000			19.397			-3.233
43305.000			19.395			-3.233
43403.000			19.395			-3.232
43504.000			19.393			-3.232
43605.000			19.393			-3.232
43704.000			19.391			-3.232
43804.000			19.391			-3.232
43905.000			19.392			-3.232
44004.000			19.391			-3.232
44103.000			19.389			-3.232
44205.000			19.387			-3.231
44304.000			19.386			-3.231
44404.000			19.384			-3.231
44505.000			19.385			-3.231
44604.000			19.385			-3.231
44704.000			19.384			-3.231
44804.000			19.384			-3.231
44904.000			19.382			-3.230
45004.000			19.381			-3.230
45105.000			19.379			-3.230
45204.000			19.379			-3.230
45304.000			19.378			-3.230
45405.000			19.378			-3.230
45503.000			19.377			-3.229
45604.000			19.374			-3.229
45705.000			19.375			-3.229
45804.000			19.374			-3.229
45904.000			19.373			-3.229
46005.000			19.372			-3.229
46104.000			19.371			-3.229
46203.000			19.371			-3.228
46305.000			19.370			-3.228
46404.000			19.369			-3.228
46505.000			19.368			-3.228
46604.000			19.368			-3.228
46704.000			19.367			-3.228
46805.000			19.366			-3.228
46903.000			19.364			-3.227
47004.000			19.363			-3.227
47105.000			19.363			-3.227
47204.000			19.363			-3.227
47304.000			19.362			-3.227
47405.000			19.360			-3.227
47504.000			19.359			-3.227
47603.000			19.360			-3.227
47705.000			19.358			-3.226
47804.000			19.357			-3.226
47904.000			19.356			-3.226
48005.000			19.355			-3.226
48104.000			19.355			-3.226
48204.000			19.354			-3.226
48304.000			19.353			-3.226
48404.000			19.353			-3.225
48504.000			19.353			-3.226
48605.000			19.350			-3.225
48704.000			19.350			-3.225
48804.000			19.350			-3.225
48905.000			19.350			-3.225
49003.000			19.348			-3.225
49104.000			19.348			-3.225
49205.000			19.346			-3.224
49304.000			19.346			-3.224
49404.000			19.345			-3.224
49505.000			19.343			-3.224
49604.000			19.343			-3.224
49703.000			19.342			-3.224
49804.000			19.341			-3.224
49904.000			19.340			-3.223
50005.000			19.340			-3.223
50104.000			19.339			-3.223
50204.000			19.338			-3.223
50305.000			19.336			-3.223
50403.000			19.336			-3.223
50504.000			19.336			-3.223
50605.000			19.335			-3.223
50704.000			19.334			-3.222
50804.000			19.333			-3.222
50904.000			19.332			-3.222
51004.000			19.332			-3.222
51103.000			19.330			-3.222
51205.000			19.329			-3.222
51304.000			19.330			-3.222
51404.000			19.329			-3.222
51505.000			19.328			-3.221
51603.000			19.328			-3.221
51704.000			19.326			-3.221
51805.000			19.325			-3.221
51904.000			19.324			-3.221
52004.000			19.324			-3.221
52105.000			19.324			-3.221
52204.000			19.323			-3.220
52303.000			19.321			-3.220
52405.000			19.319			-3.220
52504.000			19.319			-3.220
52604.000			19.318			-3.220
52705.000			19.318			-3.220
52804.000			19.318			-3.220
52905.000			19.318			-3.220
53003.000			19.316			-3.219
53104.000			19.314			-3.219
53205.000			19.315			-3.219
53304.000			19.315			-3.219
53404.000			19.313			-3.219
53505.000			19.313			-3.219
53604.000			19.312			-3.219
53703.000			19.310			-3.218
53805.000			19.309			-3.218
53904.000			19.309			-3.218
54004.000			19.309			-3.218
54105.000			19.309			-3.218
54204.000			19.308			-3.218
54304.000			19.306			-3.218
54404.000			19.306			-3.218
54504.000			19.305			-3.217
54604.000			19.304			-3.217
54705.000			19.304			-3.217
54804.000			19.303			-3.217
54903.000			19.302			-3.217
55005.000			19.301			-3.217
55104.000			19.299			-3.217
55204.000			19.299			-3.217
55305.000			19.299			-3.217
55404.000			19.298			-3.216
55504.000			19.297			-3.216
55604.000			19.298			-3.216
55704.000			19.296			-3.216
55803.000			19.295			-3.216
55905.000			19.294			-3.216
56004.000			19.293			-3.216
56105.000			19.292			-3.215
56204.000			19.292			-3.215
56304.000			19.290			-3.215
56405.000			19.290			-3.215
56503.000			19.290			-3.215
56604.000			19.289			-3.215
56705.000			19.289			-3.215
56804.000			19.289			-3.215
56904.000			19.289			-3.215
57005.000			19.287			-3.215
57104.000			19.286			-3.214
57203.000			19.286			-3.214
57305.000			19.283			-3.214
57404.000			19.282			-3.214
57504.000			19.283			-3.214
57605.000			19.282			-3.214
57704.000			19.281			-3.214
57804.000			19.281			-3.213
57904.000			19.281			-3.214
58004.000			19.280			-3.213
58104.000			19.278			-3.213
58205.000			19.277			-3.213
58304.000			19.277			-3.213
58404.000			19.276			-3.213
58505.000			19.277			-3.213
58603.000			19.275			-3.213
58704.000			19.275			-3.212
58805.000			19.274			-3.212
58904.000			19.273			-3.212
59004.000			19.272			-3.212
59105.000			19.272			-3.212
59204.000			19.273			-3.212
59303.000			19.272			-3.212
59404.000			19.271			-3.212
59504.000			19.269			-3.212
59605.000			19.269			-3.211
59704.000			19.269			-3.211
59804.000			19.268			-3.211
59905.000			19.266			-3.211
60004.000			19.265			-3.211
60104.000			19.265			-3.211
60204.000			19.264			-3.211
60304.000			19.264			-3.211
60404.000			19.262			-3.210
60505.000			19.262			-3.210
60604.000			19.263			-3.210
60703.000			19.261			-3.210
60805.000			19.260			-3.210
60904.000			19.260			-3.210
61004.000			19.260			-3.210
61105.000			19.259			-3.210
61204.000			19.257			-3.210
61304.000			19.257			-3.210
61404.000			19.256			-3.209
61504.000			19.255			-3.209
61603.000			19.256			-3.209
61705.000			19.255			-3.209
61804.000			19.254			-3.209
61904.000			19.254			-3.209
62005.000			19.254			-3.209
62104.000			19.253			-3.209
62204.000			19.252			-3.209
62305.000			19.251			-3.209
62404.000			19.250			-3.208
62505.000			19.250			-3.208
62604.000			19.250			-3.208
62704.000			19.249			-3.208
62804.000			19.248			-3.208
62904.000			19.247			-3.208
63003.000			19.246			-3.208
63105.000			19.246			-3.208
63204.000			19.246			-3.208
63304.000			19.245			-3.208
63405.000			19.244			-3.207
63503.000			19.243			-3.207
63604.000			19.243			-3.207
63705.000			19.243			-3.207
63804.000			19.243			-3.207
63904.000			19.242			-3.207
64005.000			19.241			-3.207
64104.000			19.240			-3.207
64203.000			19.239			-3.206
64305.000			19.239			-3.206
64404.000			19.238			-3.206
64504.000			19.238			-3.206
64605.000			19.235			-3.206
64704.000			19.236			-3.206
64804.000			19.236			-3.206
64904.000			19.235			-3.206
65004.000			19.234			-3.206
65104.000			19.234			-3.206
65205.000			19.233			-3.205
65304.000			19.232			-3.205
65404.000			19.232			-3.205
65505.000			19.232			-3.205
65603.000			19.231			-3.205
65705.000			19.230			-3.205
65804.000			19.230			-3.205
65904.000			19.230			-3.205
66005.000			19.228			-3.205
66104.000			19.228			-3.205
66204.000			19.228			-3.205
66304.000			19.227			-3.204
66404.000			19.226			-3.204
66503.000			19.226			-3.204
66605.000			19.225			-3.204
66704.000			19.224			-3.204
66804.000			19.223			-3.204
66905.000			19.222			-3.204
67003.000			19.222			-3.204
67104.000			19.221			-3.204
67205.000			19.221			-3.204
67304.000			19.221			-3.204
67404.000			19.220			-3.203
67505.000			19.218			-3.203
67604.000			19.218			-3.203
67703.000			19.218			-3.203
67805.000			19.217			-3.203
67904.000			19.216			-3.203
68004.000			19.217			-3.203
68105.000			19.216			-3.203
68204.000			19.213			-3.202
68304.000			19.213			-3.202
68404.000			19.213			-3.202
68504.000			19.213			-3.202
68604.000			19.212			-3.202
68705.000			19.211			-3.202
68804.000			19.211			-3.202
68905.000			19.211			-3.202
69004.000			19.209			-3.201
69103.000			19.208			-3.201
69205.000			19.209			-3.201
69304.000			19.209			-3.202
69404.000			19.209			-3.201
69505.000			19.208			-3.201
69604.000			19.208			-3.201
69704.000			19.206			-3.201
69804.000			19.205			-3.201
69904.000			19.205			-3.201
70003.000			19.204			-3.201
70105.000			19.203			-3.200
70204.000			19.202			-3.200
70304.000			19.202			-3.200
70405.000			19.200			-3.200
70503.000			19.200			-3.200
70604.000			19.199			-3.200
70705.000			19.199			-3.200
70804.000			19.199			-3.200
70904.000			19.199			-3.200
71005.000			19.197			-3.200
71104.000			19.196			-3.199
71204.000			19.197			-3.199
