# Acquired on 25/01/2024 17:37:42 
# SPIDER: Creep_-7mm_GRPCNT1454A-2
# CREEP MEASUREMENT

# time [ms]		force [N]		stiffness [N/mm]
1.000			27.342			-3.906
104.000			28.552			-4.079
204.000			28.397			-4.057
304.000			28.153			-4.022
404.000			27.972			-3.996
505.000			27.826			-3.975
604.000			27.701			-3.957
703.000			27.592			-3.942
805.000			27.409			-3.916
904.000			27.330			-3.904
1004.000			27.259			-3.894
1105.000			27.192			-3.885
1204.000			27.132			-3.876
1305.000			27.075			-3.868
1404.000			27.021			-3.860
1504.000			26.925			-3.846
1605.000			26.880			-3.840
1704.000			26.837			-3.834
1804.000			26.798			-3.828
1904.000			26.760			-3.823
2004.000			26.723			-3.818
2104.000			26.688			-3.813
2205.000			26.655			-3.808
2304.000			26.591			-3.799
2404.000			26.561			-3.794
2505.000			26.533			-3.790
2603.000			26.504			-3.786
2704.000			26.477			-3.782
2805.000			26.452			-3.779
2904.000			26.427			-3.775
3004.000			26.380			-3.769
3104.000			26.357			-3.765
3204.000			26.335			-3.762
3304.000			26.312			-3.759
3405.000			26.292			-3.756
3504.000			26.272			-3.753
3604.000			26.252			-3.750
3705.000			26.212			-3.745
3803.000			26.194			-3.742
3904.000			26.177			-3.740
4005.000			26.159			-3.737
4104.000			26.143			-3.735
4204.000			26.126			-3.732
4304.000			26.109			-3.730
4404.000			26.076			-3.725
4505.000			26.060			-3.723
4604.000			26.044			-3.721
4704.000			26.030			-3.719
4805.000			26.016			-3.717
4904.000			26.002			-3.715
5003.000			25.989			-3.713
5105.000			25.975			-3.711
5204.000			25.946			-3.707
5304.000			25.934			-3.705
5405.000			25.922			-3.703
5504.000			25.908			-3.701
5604.000			25.896			-3.699
5704.000			25.884			-3.698
5804.000			25.872			-3.696
5904.000			25.848			-3.693
6005.000			25.836			-3.691
6104.000			25.825			-3.689
6203.000			25.814			-3.688
6305.000			25.802			-3.686
6404.000			25.792			-3.685
6504.000			25.782			-3.683
6605.000			25.761			-3.680
6704.000			25.751			-3.679
6804.000			25.741			-3.677
6904.000			25.730			-3.676
7004.000			25.721			-3.674
7104.000			25.712			-3.673
7205.000			25.702			-3.672
7304.000			25.691			-3.670
7404.000			25.673			-3.668
7505.000			25.664			-3.666
7603.000			25.655			-3.665
7705.000			25.646			-3.664
7804.000			25.637			-3.662
7904.000			25.628			-3.661
8005.000			25.620			-3.660
8104.000			25.602			-3.657
8204.000			25.594			-3.656
8304.000			25.586			-3.655
8404.000			25.578			-3.654
8504.000			25.570			-3.653
8605.000			25.563			-3.652
8704.000			25.554			-3.651
8803.000			25.539			-3.648
8905.000			25.531			-3.647
9004.000			25.523			-3.646
9104.000			25.516			-3.645
9205.000			25.509			-3.644
9304.000			25.502			-3.643
9404.000			25.494			-3.642
9504.000			25.480			-3.640
9604.000			25.473			-3.639
9704.000			25.466			-3.638
9805.000			25.458			-3.637
9904.000			25.452			-3.636
10004.000			25.445			-3.635
10105.000			25.438			-3.634
10203.000			25.432			-3.633
10304.000			25.420			-3.631
10405.000			25.412			-3.630
10504.000			25.406			-3.629
10604.000			25.399			-3.628
10704.000			25.393			-3.628
10804.000			25.387			-3.627
10903.000			25.380			-3.626
11004.000			25.368			-3.624
11104.000			25.361			-3.623
11205.000			25.356			-3.622
11304.000			25.350			-3.621
11403.000			25.345			-3.621
11505.000			25.339			-3.620
11604.000			25.332			-3.619
11704.000			25.321			-3.617
11805.000			25.314			-3.616
11904.000			25.309			-3.616
12004.000			25.304			-3.615
12104.000			25.298			-3.614
12204.000			25.292			-3.613
12304.000			25.288			-3.613
12405.000			25.283			-3.612
12504.000			25.272			-3.610
12604.000			25.267			-3.610
12705.000			25.262			-3.609
12803.000			25.256			-3.608
12904.000			25.251			-3.607
13005.000			25.245			-3.606
13104.000			25.240			-3.606
13204.000			25.229			-3.604
13305.000			25.224			-3.603
13404.000			25.219			-3.603
13503.000			25.214			-3.602
13605.000			25.210			-3.601
13704.000			25.205			-3.601
13804.000			25.198			-3.600
13905.000			25.190			-3.599
14003.000			25.186			-3.598
14105.000			25.181			-3.597
14204.000			25.175			-3.596
14304.000			25.171			-3.596
14405.000			25.167			-3.595
14504.000			25.162			-3.595
14604.000			25.153			-3.593
14704.000			25.148			-3.593
14804.000			25.144			-3.592
14904.000			25.140			-3.591
15005.000			25.136			-3.591
15104.000			25.131			-3.590
15204.000			25.126			-3.589
15305.000			25.122			-3.589
15403.000			25.113			-3.588
15504.000			25.109			-3.587
15605.000			25.104			-3.586
15704.000			25.099			-3.586
15804.000			25.096			-3.585
15904.000			25.093			-3.585
16004.000			25.088			-3.584
16103.000			25.079			-3.583
16205.000			25.076			-3.582
16304.000			25.072			-3.582
16404.000			25.068			-3.581
16505.000			25.064			-3.581
16603.000			25.060			-3.580
16704.000			25.056			-3.579
16805.000			25.047			-3.578
16904.000			25.044			-3.578
17004.000			25.040			-3.577
17104.000			25.036			-3.577
17204.000			25.032			-3.576
17303.000			25.027			-3.575
17404.000			25.024			-3.575
17504.000			25.020			-3.574
17605.000			25.014			-3.573
17704.000			25.010			-3.573
17804.000			25.006			-3.572
17905.000			25.002			-3.572
18003.000			24.998			-3.571
18104.000			24.994			-3.571
18205.000			24.992			-3.570
18304.000			24.985			-3.569
18404.000			24.980			-3.569
18505.000			24.975			-3.568
18604.000			24.973			-3.568
18703.000			24.970			-3.567
18805.000			24.966			-3.567
18904.000			24.962			-3.566
19004.000			24.955			-3.565
19105.000			24.951			-3.564
19204.000			24.949			-3.564
19304.000			24.945			-3.564
19404.000			24.942			-3.563
19504.000			24.939			-3.563
19604.000			24.935			-3.562
19705.000			24.928			-3.561
19804.000			24.925			-3.561
19904.000			24.921			-3.560
20005.000			24.918			-3.560
20103.000			24.915			-3.559
20204.000			24.913			-3.559
20305.000			24.909			-3.558
20404.000			24.906			-3.558
20505.000			24.899			-3.557
20604.000			24.895			-3.556
20704.000			24.892			-3.556
20804.000			24.889			-3.556
20904.000			24.887			-3.555
21004.000			24.884			-3.555
21105.000			24.880			-3.554
21204.000			24.874			-3.553
21303.000			24.870			-3.553
21405.000			24.867			-3.552
21504.000			24.865			-3.552
21604.000			24.861			-3.552
21705.000			24.858			-3.551
21804.000			24.855			-3.551
21904.000			24.848			-3.550
22004.000			24.846			-3.549
22104.000			24.843			-3.549
22204.000			24.840			-3.549
22305.000			24.837			-3.548
22404.000			24.835			-3.548
22504.000			24.833			-3.548
22605.000			24.826			-3.547
22703.000			24.822			-3.546
22804.000			24.821			-3.546
22905.000			24.817			-3.545
23004.000			24.814			-3.545
23104.000			24.812			-3.545
23205.000			24.809			-3.544
23304.000			24.805			-3.544
23403.000			24.801			-3.543
23505.000			24.797			-3.542
23604.000			24.795			-3.542
23705.000			24.793			-3.542
23804.000			24.790			-3.541
23904.000			24.788			-3.541
24005.000			24.784			-3.541
24103.000			24.779			-3.540
24204.000			24.775			-3.539
24305.000			24.773			-3.539
24404.000			24.770			-3.539
24504.000			24.767			-3.538
24605.000			24.764			-3.538
24704.000			24.761			-3.537
24803.000			24.759			-3.537
24905.000			24.755			-3.536
25004.000			24.752			-3.536
25104.000			24.749			-3.536
25205.000			24.747			-3.535
25304.000			24.744			-3.535
25404.000			24.740			-3.534
25504.000			24.736			-3.534
25604.000			24.733			-3.533
25704.000			24.730			-3.533
25805.000			24.729			-3.533
25904.000			24.726			-3.532
26003.000			24.724			-3.532
26105.000			24.721			-3.532
26204.000			24.719			-3.531
26304.000			24.714			-3.531
26405.000			24.711			-3.530
26504.000			24.709			-3.530
26604.000			24.706			-3.529
26703.000			24.703			-3.529
26804.000			24.701			-3.529
26905.000			24.698			-3.528
27004.000			24.694			-3.528
27104.000			24.692			-3.527
27205.000			24.690			-3.527
27304.000			24.687			-3.527
27403.000			24.685			-3.526
27505.000			24.682			-3.526
27604.000			24.679			-3.526
27704.000			24.675			-3.525
27805.000			24.673			-3.525
27904.000			24.670			-3.524
28004.000			24.667			-3.524
28104.000			24.666			-3.524
28204.000			24.665			-3.524
28303.000			24.661			-3.523
28405.000			24.658			-3.523
28504.000			24.655			-3.522
28604.000			24.653			-3.522
28705.000			24.650			-3.521
28803.000			24.648			-3.521
28904.000			24.645			-3.521
29005.000			24.643			-3.520
29104.000			24.640			-3.520
29204.000			24.637			-3.520
29305.000			24.635			-3.519
29404.000			24.633			-3.519
29503.000			24.630			-3.519
29605.000			24.628			-3.518
29704.000			24.625			-3.518
29804.000			24.623			-3.518
29905.000			24.619			-3.517
30004.000			24.616			-3.517
30105.000			24.614			-3.516
30203.000			24.612			-3.516
30304.000			24.610			-3.516
30405.000			24.608			-3.515
30504.000			24.607			-3.515
30604.000			24.604			-3.515
30705.000			24.600			-3.514
30804.000			24.598			-3.514
30903.000			24.595			-3.514
31005.000			24.593			-3.513
31104.000			24.590			-3.513
31204.000			24.588			-3.513
31305.000			24.587			-3.512
31404.000			24.583			-3.512
31504.000			24.581			-3.512
31604.000			24.579			-3.511
31704.000			24.578			-3.511
31804.000			24.577			-3.511
31905.000			24.575			-3.511
32004.000			24.572			-3.510
32103.000			24.568			-3.510
32205.000			24.566			-3.509
32304.000			24.564			-3.509
32404.000			24.562			-3.509
32505.000			24.560			-3.509
32604.000			24.558			-3.508
32704.000			24.556			-3.508
32804.000			24.552			-3.507
32904.000			24.550			-3.507
33004.000			24.549			-3.507
33104.000			24.547			-3.507
33204.000			24.544			-3.506
33305.000			24.542			-3.506
33404.000			24.541			-3.506
33503.000			24.539			-3.506
33605.000			24.535			-3.505
33704.000			24.532			-3.505
33804.000			24.530			-3.504
33905.000			24.528			-3.504
34004.000			24.526			-3.504
34104.000			24.525			-3.504
34204.000			24.523			-3.503
34304.000			24.519			-3.503
34404.000			24.517			-3.502
34505.000			24.515			-3.502
34604.000			24.512			-3.502
34704.000			24.511			-3.502
34805.000			24.509			-3.501
34904.000			24.507			-3.501
35004.000			24.505			-3.501
35105.000			24.502			-3.500
35204.000			24.500			-3.500
35304.000			24.499			-3.500
35404.000			24.496			-3.499
35504.000			24.493			-3.499
35604.000			24.492			-3.499
35705.000			24.489			-3.498
35804.000			24.488			-3.498
35904.000			24.486			-3.498
36005.000			24.484			-3.498
36103.000			24.483			-3.498
36204.000			24.479			-3.497
36305.000			24.478			-3.497
36404.000			24.476			-3.497
36505.000			24.474			-3.496
36604.000			24.472			-3.496
36704.000			24.469			-3.496
36804.000			24.468			-3.495
36904.000			24.467			-3.495
37004.000			24.465			-3.495
37105.000			24.463			-3.495
37204.000			24.458			-3.494
37304.000			24.457			-3.494
37405.000			24.455			-3.494
37503.000			24.453			-3.493
37604.000			24.452			-3.493
37705.000			24.451			-3.493
37804.000			24.449			-3.493
37904.000			24.446			-3.492
38005.000			24.444			-3.492
38104.000			24.442			-3.492
38203.000			24.439			-3.491
38305.000			24.438			-3.491
38404.000			24.437			-3.491
38504.000			24.435			-3.491
38605.000			24.433			-3.490
38704.000			24.431			-3.490
38804.000			24.429			-3.490
38904.000			24.427			-3.490
39004.000			24.426			-3.489
39104.000			24.425			-3.489
39205.000			24.422			-3.489
39304.000			24.420			-3.489
39404.000			24.417			-3.488
39505.000			24.414			-3.488
39603.000			24.414			-3.488
39705.000			24.412			-3.487
39804.000			24.410			-3.487
39904.000			24.409			-3.487
40005.000			24.407			-3.487
40103.000			24.404			-3.486
40204.000			24.403			-3.486
40305.000			24.401			-3.486
40404.000			24.399			-3.486
40504.000			24.398			-3.485
40605.000			24.396			-3.485
40704.000			24.394			-3.485
40803.000			24.393			-3.485
40905.000			24.390			-3.484
41004.000			24.389			-3.484
41104.000			24.388			-3.484
41205.000			24.386			-3.484
41304.000			24.384			-3.483
41404.000			24.382			-3.483
41504.000			24.379			-3.483
41604.000			24.378			-3.483
41704.000			24.377			-3.482
41805.000			24.374			-3.482
41904.000			24.373			-3.482
42004.000			24.372			-3.482
42105.000			24.370			-3.481
42203.000			24.369			-3.481
42304.000			24.366			-3.481
42405.000			24.364			-3.481
42504.000			24.362			-3.480
42604.000			24.361			-3.480
42703.000			24.360			-3.480
42804.000			24.358			-3.480
42905.000			24.357			-3.480
43004.000			24.353			-3.479
43104.000			24.352			-3.479
43205.000			24.350			-3.479
43304.000			24.349			-3.478
43403.000			24.349			-3.478
43505.000			24.346			-3.478
43604.000			24.345			-3.478
43704.000			24.344			-3.478
43805.000			24.341			-3.477
43904.000			24.339			-3.477
44004.000			24.338			-3.477
44104.000			24.336			-3.477
44204.000			24.334			-3.476
44304.000			24.333			-3.476
44405.000			24.332			-3.476
44504.000			24.328			-3.475
44604.000			24.327			-3.475
44705.000			24.326			-3.475
44803.000			24.325			-3.475
44904.000			24.323			-3.475
45005.000			24.322			-3.475
45104.000			24.321			-3.474
45204.000			24.317			-3.474
45304.000			24.316			-3.474
45404.000			24.315			-3.474
45504.000			24.313			-3.473
45605.000			24.311			-3.473
45704.000			24.311			-3.473
45804.000			24.309			-3.473
45905.000			24.306			-3.472
46003.000			24.305			-3.472
46105.000			24.303			-3.472
46204.000			24.302			-3.472
46304.000			24.300			-3.471
46405.000			24.299			-3.471
46504.000			24.298			-3.471
46604.000			24.296			-3.471
46704.000			24.293			-3.470
46804.000			24.292			-3.470
46904.000			24.291			-3.470
47005.000			24.290			-3.470
47104.000			24.289			-3.470
47204.000			24.286			-3.469
47305.000			24.285			-3.469
47403.000			24.283			-3.469
47504.000			24.281			-3.469
47605.000			24.281			-3.469
47704.000			24.279			-3.468
47804.000			24.278			-3.468
47905.000			24.277			-3.468
48004.000			24.276			-3.468
48103.000			24.272			-3.467
48205.000			24.271			-3.467
48304.000			24.269			-3.467
48404.000			24.268			-3.467
48505.000			24.267			-3.467
48603.000			24.265			-3.466
48704.000			24.264			-3.466
48805.000			24.261			-3.466
48904.000			24.260			-3.466
49004.000			24.258			-3.465
49104.000			24.257			-3.465
49204.000			24.256			-3.465
49303.000			24.255			-3.465
49404.000			24.254			-3.465
49503.000			24.253			-3.465
49605.000			24.249			-3.464
49704.000			24.248			-3.464
49804.000			24.247			-3.464
49905.000			24.244			-3.463
50003.000			24.243			-3.463
50104.000			24.243			-3.463
50205.000			24.242			-3.463
50304.000			24.240			-3.463
50404.000			24.238			-3.463
50505.000			24.237			-3.462
50604.000			24.237			-3.462
50703.000			24.235			-3.462
50805.000			24.233			-3.462
50904.000			24.231			-3.462
51004.000			24.230			-3.461
51105.000			24.229			-3.461
51204.000			24.227			-3.461
51304.000			24.224			-3.461
51404.000			24.223			-3.460
51504.000			24.222			-3.460
51604.000			24.221			-3.460
51705.000			24.219			-3.460
51804.000			24.218			-3.460
51903.000			24.216			-3.459
52005.000			24.215			-3.459
52104.000			24.214			-3.459
52204.000			24.212			-3.459
52305.000			24.212			-3.459
52404.000			24.211			-3.459
52505.000			24.208			-3.458
52603.000			24.207			-3.458
52704.000			24.206			-3.458
52805.000			24.205			-3.458
52904.000			24.204			-3.458
53004.000			24.203			-3.458
53104.000			24.201			-3.457
53204.000			24.198			-3.457
53303.000			24.197			-3.457
53405.000			24.196			-3.457
53504.000			24.196			-3.457
53604.000			24.195			-3.456
53705.000			24.192			-3.456
53803.000			24.191			-3.456
53904.000			24.189			-3.456
54005.000			24.189			-3.456
54104.000			24.187			-3.455
54204.000			24.185			-3.455
54305.000			24.184			-3.455
54404.000			24.183			-3.455
54503.000			24.183			-3.455
54605.000			24.182			-3.455
54704.000			24.178			-3.454
54804.000			24.177			-3.454
54905.000			24.176			-3.454
55004.000			24.175			-3.454
55104.000			24.172			-3.453
55204.000			24.171			-3.453
55304.000			24.171			-3.453
55404.000			24.169			-3.453
55504.000			24.169			-3.453
55604.000			24.167			-3.452
55705.000			24.165			-3.452
55804.000			24.164			-3.452
55903.000			24.164			-3.452
56005.000			24.162			-3.452
56104.000			24.160			-3.451
56204.000			24.159			-3.451
56305.000			24.157			-3.451
56404.000			24.156			-3.451
56504.000			24.155			-3.451
56604.000			24.155			-3.451
56704.000			24.153			-3.450
56804.000			24.152			-3.450
56905.000			24.151			-3.450
57004.000			24.149			-3.450
57103.000			24.147			-3.450
57205.000			24.146			-3.449
57304.000			24.145			-3.449
57404.000			24.145			-3.449
57505.000			24.142			-3.449
57604.000			24.142			-3.449
57704.000			24.140			-3.449
57804.000			24.138			-3.448
57904.000			24.138			-3.448
58004.000			24.137			-3.448
58105.000			24.135			-3.448
58204.000			24.135			-3.448
58304.000			24.132			-3.447
58405.000			24.131			-3.447
58503.000			24.129			-3.447
58604.000			24.128			-3.447
58705.000			24.128			-3.447
58804.000			24.127			-3.447
58905.000			24.125			-3.446
59004.000			24.123			-3.446
59104.000			24.123			-3.446
59204.000			24.122			-3.446
59304.000			24.121			-3.446
59404.000			24.118			-3.445
59505.000			24.118			-3.445
59604.000			24.117			-3.445
59704.000			24.116			-3.445
59805.000			24.113			-3.445
59903.000			24.112			-3.445
60004.000			24.111			-3.444
60105.000			24.110			-3.444
60204.000			24.109			-3.444
60304.000			24.109			-3.444
60404.000			24.107			-3.444
60504.000			24.105			-3.444
60604.000			24.105			-3.444
60705.000			24.102			-3.443
60804.000			24.102			-3.443
60904.000			24.101			-3.443
61005.000			24.100			-3.443
61103.000			24.100			-3.443
61204.000			24.097			-3.442
61305.000			24.095			-3.442
61404.000			24.094			-3.442
61504.000			24.094			-3.442
61605.000			24.093			-3.442
61704.000			24.092			-3.442
61803.000			24.091			-3.442
61905.000			24.089			-3.441
62004.000			24.088			-3.441
62105.000			24.087			-3.441
62204.000			24.085			-3.441
62303.000			24.084			-3.441
62405.000			24.084			-3.441
62504.000			24.083			-3.440
62604.000			24.081			-3.440
62705.000			24.080			-3.440
62804.000			24.079			-3.440
62904.000			24.078			-3.440
63004.000			24.076			-3.439
63104.000			24.074			-3.439
63204.000			24.074			-3.439
63305.000			24.075			-3.439
63404.000			24.071			-3.439
63504.000			24.071			-3.439
63605.000			24.070			-3.439
63703.000			24.068			-3.438
63804.000			24.067			-3.438
63905.000			24.066			-3.438
64004.000			24.066			-3.438
64104.000			24.063			-3.438
64205.000			24.063			-3.438
64304.000			24.062			-3.437
64403.000			24.061			-3.437
64505.000			24.059			-3.437
64604.000			24.059			-3.437
64704.000			24.058			-3.437
64805.000			24.055			-3.436
64904.000			24.054			-3.436
65004.000			24.053			-3.436
65103.000			24.052			-3.436
65204.000			24.052			-3.436
65305.000			24.050			-3.436
65404.000			24.049			-3.436
65504.000			24.049			-3.436
65604.000			24.047			-3.435
65704.000			24.045			-3.435
65803.000			24.045			-3.435
65905.000			24.044			-3.435
66004.000			24.043			-3.435
66104.000			24.041			-3.434
66205.000			24.040			-3.434
66304.000			24.039			-3.434
66404.000			24.037			-3.434
66504.000			24.037			-3.434
66604.000			24.035			-3.434
66704.000			24.034			-3.433
66805.000			24.033			-3.433
66904.000			24.033			-3.433
67003.000			24.030			-3.433
67105.000			24.029			-3.433
67204.000			24.030			-3.433
67304.000			24.029			-3.433
67405.000			24.028			-3.433
67504.000			24.026			-3.432
67604.000			24.026			-3.432
67704.000			24.026			-3.432
67804.000			24.024			-3.432
67904.000			24.022			-3.432
68005.000			24.020			-3.431
68104.000			24.020			-3.431
68204.000			24.019			-3.431
68305.000			24.017			-3.431
68403.000			24.015			-3.431
68505.000			24.014			-3.431
68604.000			24.014			-3.431
68704.000			24.013			-3.430
68805.000			24.012			-3.430
68904.000			24.010			-3.430
69004.000			24.010			-3.430
69104.000			24.009			-3.430
69204.000			24.008			-3.430
69304.000			24.007			-3.430
69405.000			24.006			-3.429
69504.000			24.006			-3.429
69604.000			24.005			-3.429
69705.000			24.004			-3.429
69803.000			24.002			-3.429
69904.000			24.000			-3.429
70005.000			23.998			-3.428
70104.000			23.998			-3.428
70204.000			23.997			-3.428
70305.000			23.996			-3.428
70404.000			23.995			-3.428
70503.000			23.995			-3.428
70605.000			23.994			-3.428
70704.000			23.992			-3.427
70804.000			23.991			-3.427
70905.000			23.990			-3.427
71004.000			23.990			-3.427
71104.000			23.989			-3.427
71204.000			23.988			-3.427
