# Acquired on 26/01/2024 16:31:19 
# SPIDER: Creep_-6mm_HM077x145x38AB-2
# CREEP MEASUREMENT

# time [ms]		force [N]		stiffness [N/mm]
0.000			20.984			-3.497
103.000			21.384			-3.564
204.000			21.443			-3.574
305.000			21.375			-3.562
404.000			21.320			-3.553
505.000			21.277			-3.546
603.000			21.209			-3.535
704.000			21.181			-3.530
805.000			21.155			-3.526
904.000			21.130			-3.522
1004.000			21.107			-3.518
1104.000			21.088			-3.515
1204.000			21.068			-3.511
1304.000			21.033			-3.506
1405.000			21.016			-3.503
1504.000			21.000			-3.500
1603.000			20.986			-3.498
1705.000			20.971			-3.495
1804.000			20.957			-3.493
1904.000			20.944			-3.491
2005.000			20.931			-3.489
2104.000			20.907			-3.485
2204.000			20.896			-3.483
2304.000			20.885			-3.481
2404.000			20.875			-3.479
2504.000			20.864			-3.477
2605.000			20.855			-3.476
2704.000			20.845			-3.474
2804.000			20.826			-3.471
2905.000			20.817			-3.470
3003.000			20.809			-3.468
3104.000			20.800			-3.467
3205.000			20.791			-3.465
3304.000			20.783			-3.464
3404.000			20.775			-3.462
3503.000			20.760			-3.460
3604.000			20.753			-3.459
3705.000			20.745			-3.458
3804.000			20.738			-3.456
3904.000			20.732			-3.455
4005.000			20.725			-3.454
4104.000			20.718			-3.453
4203.000			20.704			-3.451
4305.000			20.698			-3.450
4404.000			20.691			-3.449
4504.000			20.687			-3.448
4605.000			20.681			-3.447
4703.000			20.674			-3.446
4804.000			20.667			-3.445
4905.000			20.661			-3.444
5004.000			20.651			-3.442
5104.000			20.645			-3.441
5205.000			20.640			-3.440
5304.000			20.635			-3.439
5403.000			20.629			-3.438
5505.000			20.622			-3.437
5604.000			20.618			-3.436
5704.000			20.608			-3.435
5805.000			20.603			-3.434
5903.000			20.598			-3.433
6004.000			20.594			-3.432
6105.000			20.590			-3.432
6204.000			20.584			-3.431
6304.000			20.580			-3.430
6405.000			20.570			-3.428
6504.000			20.565			-3.428
6603.000			20.560			-3.427
6705.000			20.557			-3.426
6804.000			20.554			-3.426
6905.000			20.548			-3.425
7004.000			20.545			-3.424
7103.000			20.536			-3.423
7205.000			20.532			-3.422
7304.000			20.528			-3.421
7404.000			20.525			-3.421
7505.000			20.521			-3.420
7604.000			20.517			-3.419
7704.000			20.512			-3.419
7804.000			20.509			-3.418
7904.000			20.501			-3.417
8004.000			20.499			-3.416
8105.000			20.495			-3.416
8204.000			20.491			-3.415
8303.000			20.487			-3.415
8405.000			20.484			-3.414
8504.000			20.479			-3.413
8604.000			20.473			-3.412
8705.000			20.470			-3.412
8804.000			20.467			-3.411
8904.000			20.463			-3.410
9004.000			20.459			-3.410
9104.000			20.456			-3.409
9204.000			20.453			-3.409
9305.000			20.446			-3.408
9404.000			20.443			-3.407
9504.000			20.440			-3.407
9605.000			20.437			-3.406
9703.000			20.434			-3.406
9804.000			20.431			-3.405
9905.000			20.428			-3.405
10004.000			20.424			-3.404
10105.000			20.418			-3.403
10203.000			20.416			-3.403
10304.000			20.413			-3.402
10405.000			20.409			-3.401
10504.000			20.407			-3.401
10604.000			20.404			-3.401
10705.000			20.401			-3.400
10804.000			20.397			-3.399
10903.000			20.394			-3.399
11005.000			20.391			-3.399
11104.000			20.389			-3.398
11204.000			20.386			-3.398
11305.000			20.383			-3.397
11404.000			20.380			-3.397
11504.000			20.373			-3.396
11604.000			20.372			-3.395
11704.000			20.370			-3.395
11804.000			20.366			-3.394
11905.000			20.364			-3.394
12004.000			20.361			-3.394
12103.000			20.358			-3.393
12205.000			20.353			-3.392
12304.000			20.350			-3.392
12404.000			20.347			-3.391
12505.000			20.345			-3.391
12604.000			20.342			-3.390
12704.000			20.339			-3.390
12804.000			20.337			-3.390
12904.000			20.334			-3.389
13004.000			20.330			-3.388
13104.000			20.328			-3.388
13204.000			20.326			-3.388
13305.000			20.323			-3.387
13404.000			20.321			-3.387
13503.000			20.318			-3.386
13605.000			20.317			-3.386
13704.000			20.311			-3.385
13804.000			20.310			-3.385
13905.000			20.308			-3.385
14003.000			20.305			-3.384
14104.000			20.303			-3.384
14205.000			20.301			-3.384
14304.000			20.300			-3.383
14404.000			20.295			-3.383
14505.000			20.293			-3.382
14604.000			20.290			-3.382
14703.000			20.287			-3.381
14805.000			20.285			-3.381
14904.000			20.284			-3.381
15004.000			20.281			-3.380
15105.000			20.277			-3.380
15204.000			20.275			-3.379
15304.000			20.273			-3.379
15404.000			20.271			-3.378
15504.000			20.268			-3.378
15604.000			20.266			-3.378
15705.000			20.264			-3.377
15804.000			20.263			-3.377
15903.000			20.259			-3.377
16005.000			20.257			-3.376
16104.000			20.255			-3.376
16204.000			20.253			-3.375
16305.000			20.251			-3.375
16404.000			20.249			-3.375
16505.000			20.247			-3.374
16603.000			20.244			-3.374
16704.000			20.243			-3.374
16805.000			20.240			-3.373
16904.000			20.239			-3.373
17004.000			20.238			-3.373
17105.000			20.235			-3.373
17204.000			20.232			-3.372
17303.000			20.230			-3.372
17405.000			20.228			-3.371
17504.000			20.225			-3.371
17604.000			20.223			-3.370
17705.000			20.221			-3.370
17804.000			20.219			-3.370
17904.000			20.218			-3.370
18004.000			20.214			-3.369
18104.000			20.212			-3.369
18204.000			20.211			-3.368
18305.000			20.209			-3.368
18404.000			20.208			-3.368
18503.000			20.206			-3.368
18605.000			20.205			-3.367
18704.000			20.202			-3.367
18804.000			20.199			-3.366
18905.000			20.197			-3.366
19004.000			20.195			-3.366
19104.000			20.194			-3.366
19204.000			20.192			-3.365
19304.000			20.190			-3.365
19404.000			20.189			-3.365
19504.000			20.184			-3.364
19604.000			20.182			-3.364
19705.000			20.180			-3.363
19804.000			20.178			-3.363
19903.000			20.177			-3.363
20005.000			20.177			-3.363
20104.000			20.175			-3.362
20204.000			20.172			-3.362
20305.000			20.171			-3.362
20404.000			20.169			-3.362
20504.000			20.167			-3.361
20604.000			20.165			-3.361
20704.000			20.163			-3.360
20804.000			20.162			-3.360
20905.000			20.160			-3.360
21004.000			20.158			-3.360
21103.000			20.156			-3.359
21205.000			20.154			-3.359
21304.000			20.153			-3.359
21404.000			20.151			-3.359
21505.000			20.150			-3.358
21604.000			20.149			-3.358
21704.000			20.146			-3.358
21804.000			20.143			-3.357
21904.000			20.141			-3.357
22004.000			20.141			-3.357
22105.000			20.141			-3.357
22204.000			20.139			-3.356
22303.000			20.138			-3.356
22405.000			20.134			-3.356
22504.000			20.132			-3.355
22604.000			20.131			-3.355
22705.000			20.130			-3.355
22804.000			20.128			-3.355
22905.000			20.126			-3.354
23003.000			20.125			-3.354
23104.000			20.122			-3.354
23205.000			20.120			-3.353
23304.000			20.119			-3.353
23404.000			20.118			-3.353
23504.000			20.117			-3.353
23604.000			20.115			-3.353
23703.000			20.113			-3.352
23805.000			20.111			-3.352
23904.000			20.110			-3.352
24004.000			20.108			-3.351
24105.000			20.107			-3.351
24203.000			20.105			-3.351
24304.000			20.103			-3.351
24405.000			20.102			-3.350
24504.000			20.100			-3.350
24604.000			20.098			-3.350
24705.000			20.097			-3.349
24804.000			20.095			-3.349
24903.000			20.094			-3.349
25005.000			20.093			-3.349
25104.000			20.091			-3.349
25204.000			20.090			-3.348
25305.000			20.089			-3.348
25404.000			20.087			-3.348
25504.000			20.086			-3.348
25604.000			20.084			-3.347
25704.000			20.083			-3.347
25804.000			20.081			-3.347
25904.000			20.081			-3.347
26004.000			20.078			-3.346
26103.000			20.075			-3.346
26204.000			20.073			-3.346
26304.000			20.072			-3.345
26405.000			20.072			-3.345
26504.000			20.071			-3.345
26604.000			20.069			-3.345
26705.000			20.067			-3.344
26803.000			20.066			-3.344
26904.000			20.065			-3.344
27005.000			20.065			-3.344
27104.000			20.064			-3.344
27204.000			20.062			-3.344
27305.000			20.060			-3.343
27404.000			20.058			-3.343
27503.000			20.056			-3.343
27605.000			20.055			-3.343
27704.000			20.054			-3.342
27804.000			20.052			-3.342
27905.000			20.051			-3.342
28003.000			20.050			-3.342
28104.000			20.048			-3.341
28205.000			20.046			-3.341
28304.000			20.044			-3.341
28404.000			20.043			-3.341
28505.000			20.042			-3.340
28604.000			20.041			-3.340
28703.000			20.042			-3.340
28805.000			20.040			-3.340
28904.000			20.036			-3.339
29004.000			20.036			-3.339
29105.000			20.035			-3.339
29204.000			20.033			-3.339
29305.000			20.033			-3.339
29403.000			20.031			-3.339
29504.000			20.030			-3.338
29605.000			20.028			-3.338
29704.000			20.027			-3.338
29804.000			20.026			-3.338
29904.000			20.025			-3.337
30004.000			20.024			-3.337
30103.000			20.022			-3.337
30205.000			20.021			-3.337
30304.000			20.020			-3.337
30404.000			20.018			-3.336
30505.000			20.016			-3.336
30603.000			20.015			-3.336
30704.000			20.014			-3.336
30805.000			20.013			-3.336
30904.000			20.012			-3.335
31004.000			20.011			-3.335
31105.000			20.009			-3.335
31204.000			20.008			-3.335
31303.000			20.006			-3.334
31405.000			20.006			-3.334
31504.000			20.005			-3.334
31604.000			20.004			-3.334
31705.000			20.003			-3.334
31803.000			20.000			-3.333
31904.000			19.999			-3.333
32005.000			19.999			-3.333
32104.000			19.997			-3.333
32204.000			19.995			-3.333
32304.000			19.996			-3.333
32404.000			19.995			-3.333
32503.000			19.992			-3.332
32604.000			19.993			-3.332
32704.000			19.991			-3.332
32805.000			19.989			-3.332
32904.000			19.989			-3.331
33004.000			19.987			-3.331
33105.000			19.986			-3.331
33204.000			19.985			-3.331
33304.000			19.984			-3.331
33404.000			19.984			-3.331
33504.000			19.982			-3.330
33604.000			19.980			-3.330
33705.000			19.979			-3.330
33804.000			19.977			-3.330
33904.000			19.976			-3.329
34005.000			19.975			-3.329
34103.000			19.974			-3.329
34204.000			19.973			-3.329
34305.000			19.972			-3.329
34404.000			19.971			-3.328
34504.000			19.969			-3.328
34605.000			19.968			-3.328
34704.000			19.967			-3.328
34803.000			19.967			-3.328
34905.000			19.966			-3.328
35004.000			19.964			-3.327
35104.000			19.963			-3.327
35205.000			19.963			-3.327
35304.000			19.962			-3.327
35404.000			19.960			-3.327
35503.000			19.959			-3.326
35604.000			19.958			-3.326
35705.000			19.957			-3.326
35804.000			19.956			-3.326
35904.000			19.955			-3.326
36005.000			19.954			-3.326
36104.000			19.955			-3.326
36203.000			19.953			-3.325
36305.000			19.952			-3.325
36404.000			19.950			-3.325
36504.000			19.949			-3.325
36605.000			19.948			-3.325
36704.000			19.947			-3.325
36804.000			19.946			-3.324
36904.000			19.944			-3.324
37004.000			19.943			-3.324
37104.000			19.943			-3.324
37205.000			19.941			-3.324
37304.000			19.940			-3.323
37404.000			19.939			-3.323
37505.000			19.939			-3.323
37603.000			19.936			-3.323
37704.000			19.935			-3.323
37805.000			19.934			-3.322
37904.000			19.933			-3.322
38004.000			19.933			-3.322
38105.000			19.932			-3.322
38204.000			19.931			-3.322
38303.000			19.930			-3.322
38405.000			19.929			-3.321
38504.000			19.928			-3.321
38604.000			19.926			-3.321
38705.000			19.926			-3.321
38804.000			19.926			-3.321
38905.000			19.925			-3.321
39004.000			19.924			-3.321
39104.000			19.922			-3.320
39204.000			19.921			-3.320
39304.000			19.920			-3.320
39404.000			19.919			-3.320
39505.000			19.918			-3.320
39604.000			19.918			-3.320
39704.000			19.917			-3.320
39805.000			19.916			-3.319
39903.000			19.915			-3.319
40004.000			19.914			-3.319
40105.000			19.913			-3.319
40204.000			19.911			-3.319
40304.000			19.910			-3.318
40405.000			19.911			-3.318
40504.000			19.909			-3.318
40603.000			19.907			-3.318
40705.000			19.905			-3.318
40804.000			19.905			-3.318
40904.000			19.905			-3.318
41005.000			19.904			-3.317
41104.000			19.903			-3.317
41204.000			19.901			-3.317
41304.000			19.901			-3.317
41404.000			19.900			-3.317
41504.000			19.899			-3.316
41605.000			19.899			-3.316
41704.000			19.897			-3.316
41804.000			19.896			-3.316
41905.000			19.897			-3.316
42003.000			19.895			-3.316
42105.000			19.894			-3.316
42204.000			19.893			-3.315
42304.000			19.892			-3.315
42405.000			19.892			-3.315
42504.000			19.890			-3.315
42604.000			19.888			-3.315
42704.000			19.888			-3.315
42804.000			19.887			-3.315
42904.000			19.887			-3.314
43005.000			19.886			-3.314
43104.000			19.885			-3.314
43204.000			19.884			-3.314
43305.000			19.883			-3.314
43403.000			19.881			-3.314
43504.000			19.880			-3.313
43605.000			19.879			-3.313
43704.000			19.879			-3.313
43804.000			19.878			-3.313
43905.000			19.876			-3.313
44004.000			19.875			-3.313
44103.000			19.875			-3.312
44205.000			19.874			-3.312
44304.000			19.873			-3.312
44404.000			19.873			-3.312
44505.000			19.872			-3.312
44604.000			19.871			-3.312
44704.000			19.869			-3.312
44804.000			19.869			-3.311
44904.000			19.869			-3.311
45004.000			19.867			-3.311
45104.000			19.867			-3.311
45204.000			19.864			-3.311
45305.000			19.863			-3.311
45404.000			19.864			-3.311
45503.000			19.863			-3.311
45605.000			19.861			-3.310
45704.000			19.861			-3.310
45804.000			19.859			-3.310
45905.000			19.859			-3.310
46004.000			19.858			-3.310
46104.000			19.857			-3.310
46204.000			19.857			-3.309
46304.000			19.855			-3.309
46403.000			19.854			-3.309
46505.000			19.854			-3.309
46604.000			19.853			-3.309
46704.000			19.852			-3.309
46805.000			19.851			-3.309
46904.000			19.850			-3.308
47004.000			19.850			-3.308
47104.000			19.848			-3.308
47204.000			19.847			-3.308
47304.000			19.846			-3.308
47405.000			19.846			-3.308
47504.000			19.845			-3.307
47604.000			19.844			-3.307
47705.000			19.844			-3.307
47803.000			19.842			-3.307
47904.000			19.841			-3.307
48005.000			19.839			-3.307
48104.000			19.839			-3.306
48204.000			19.839			-3.306
48304.000			19.838			-3.306
48404.000			19.836			-3.306
48503.000			19.835			-3.306
48604.000			19.835			-3.306
48704.000			19.834			-3.306
48805.000			19.833			-3.306
48904.000			19.833			-3.306
49004.000			19.832			-3.305
49105.000			19.830			-3.305
49203.000			19.829			-3.305
49304.000			19.828			-3.305
49405.000			19.828			-3.305
49504.000			19.828			-3.305
49604.000			19.827			-3.304
49705.000			19.825			-3.304
49804.000			19.824			-3.304
49904.000			19.824			-3.304
50005.000			19.824			-3.304
50103.000			19.822			-3.304
50204.000			19.822			-3.304
50305.000			19.821			-3.304
50404.000			19.820			-3.303
50504.000			19.819			-3.303
50605.000			19.818			-3.303
50704.000			19.817			-3.303
50803.000			19.817			-3.303
50905.000			19.816			-3.303
51004.000			19.816			-3.303
51104.000			19.815			-3.302
51205.000			19.814			-3.302
51304.000			19.813			-3.302
51404.000			19.812			-3.302
51503.000			19.811			-3.302
51604.000			19.810			-3.302
51705.000			19.809			-3.302
51804.000			19.809			-3.301
51904.000			19.808			-3.301
52005.000			19.808			-3.301
52104.000			19.808			-3.301
52203.000			19.806			-3.301
52305.000			19.804			-3.301
52404.000			19.804			-3.301
52504.000			19.804			-3.301
52605.000			19.803			-3.301
52704.000			19.802			-3.300
52804.000			19.801			-3.300
52904.000			19.800			-3.300
53004.000			19.799			-3.300
53104.000			19.798			-3.300
53205.000			19.798			-3.300
53304.000			19.798			-3.300
53404.000			19.797			-3.299
53505.000			19.796			-3.299
53603.000			19.795			-3.299
53704.000			19.794			-3.299
53805.000			19.794			-3.299
53904.000			19.794			-3.299
54004.000			19.793			-3.299
54105.000			19.792			-3.299
54204.000			19.791			-3.298
54303.000			19.789			-3.298
54405.000			19.789			-3.298
54504.000			19.788			-3.298
54604.000			19.787			-3.298
54705.000			19.787			-3.298
54804.000			19.785			-3.298
54905.000			19.785			-3.298
55003.000			19.785			-3.298
55104.000			19.785			-3.297
55205.000			19.784			-3.297
55304.000			19.783			-3.297
55404.000			19.782			-3.297
55505.000			19.781			-3.297
55604.000			19.780			-3.297
55703.000			19.779			-3.297
55805.000			19.778			-3.296
55904.000			19.779			-3.296
56004.000			19.777			-3.296
56105.000			19.776			-3.296
56204.000			19.777			-3.296
56304.000			19.776			-3.296
56404.000			19.776			-3.296
56504.000			19.775			-3.296
56603.000			19.774			-3.296
56705.000			19.773			-3.295
56804.000			19.773			-3.295
56904.000			19.772			-3.295
57005.000			19.771			-3.295
57104.000			19.770			-3.295
57204.000			19.769			-3.295
57304.000			19.769			-3.295
57404.000			19.767			-3.295
57504.000			19.765			-3.294
57605.000			19.766			-3.294
57704.000			19.765			-3.294
57804.000			19.765			-3.294
57905.000			19.764			-3.294
58003.000			19.764			-3.294
58105.000			19.763			-3.294
58204.000			19.762			-3.294
58304.000			19.762			-3.294
58405.000			19.762			-3.294
58504.000			19.760			-3.293
58604.000			19.759			-3.293
58704.000			19.759			-3.293
58804.000			19.758			-3.293
58904.000			19.757			-3.293
59005.000			19.756			-3.293
59104.000			19.757			-3.293
59204.000			19.755			-3.293
59305.000			19.754			-3.292
59403.000			19.753			-3.292
59504.000			19.752			-3.292
59605.000			19.752			-3.292
59704.000			19.751			-3.292
59804.000			19.751			-3.292
59905.000			19.751			-3.292
60004.000			19.750			-3.292
60104.000			19.749			-3.291
60205.000			19.748			-3.291
60303.000			19.747			-3.291
60404.000			19.747			-3.291
60505.000			19.745			-3.291
60604.000			19.745			-3.291
60704.000			19.746			-3.291
60805.000			19.745			-3.291
60904.000			19.743			-3.291
61003.000			19.743			-3.290
61105.000			19.743			-3.290
61204.000			19.742			-3.290
61305.000			19.742			-3.290
61404.000			19.741			-3.290
61504.000			19.740			-3.290
61605.000			19.739			-3.290
61703.000			19.740			-3.290
61804.000			19.738			-3.290
61905.000			19.737			-3.290
62004.000			19.736			-3.289
62104.000			19.736			-3.289
62205.000			19.735			-3.289
62304.000			19.736			-3.289
62403.000			19.735			-3.289
62505.000			19.734			-3.289
62604.000			19.732			-3.289
62704.000			19.731			-3.289
62805.000			19.731			-3.289
62904.000			19.731			-3.289
63004.000			19.730			-3.288
63104.000			19.729			-3.288
63204.000			19.728			-3.288
63304.000			19.728			-3.288
63405.000			19.727			-3.288
63504.000			19.726			-3.288
63604.000			19.726			-3.288
63705.000			19.726			-3.288
63803.000			19.726			-3.288
63904.000			19.725			-3.287
64005.000			19.723			-3.287
64104.000			19.723			-3.287
64204.000			19.722			-3.287
64304.000			19.721			-3.287
64404.000			19.721			-3.287
64503.000			19.721			-3.287
64604.000			19.721			-3.287
64704.000			19.719			-3.287
64805.000			19.720			-3.287
64904.000			19.719			-3.286
65004.000			19.718			-3.286
65105.000			19.718			-3.286
65203.000			19.716			-3.286
65304.000			19.715			-3.286
65405.000			19.713			-3.286
65504.000			19.713			-3.286
65604.000			19.713			-3.286
65705.000			19.712			-3.285
65804.000			19.712			-3.285
65903.000			19.710			-3.285
66005.000			19.711			-3.285
66104.000			19.711			-3.285
66204.000			19.710			-3.285
66305.000			19.709			-3.285
66404.000			19.708			-3.285
66504.000			19.708			-3.285
66604.000			19.707			-3.284
66704.000			19.707			-3.284
66804.000			19.707			-3.285
66905.000			19.706			-3.284
67004.000			19.705			-3.284
67104.000			19.705			-3.284
67205.000			19.704			-3.284
67303.000			19.703			-3.284
67404.000			19.702			-3.284
67505.000			19.701			-3.284
67604.000			19.701			-3.283
67705.000			19.700			-3.283
67804.000			19.699			-3.283
67904.000			19.699			-3.283
68004.000			19.698			-3.283
68104.000			19.698			-3.283
68204.000			19.697			-3.283
68305.000			19.696			-3.283
68404.000			19.696			-3.283
68504.000			19.695			-3.282
68605.000			19.695			-3.282
68703.000			19.695			-3.283
68804.000			19.694			-3.282
68904.000			19.693			-3.282
69004.000			19.693			-3.282
69104.000			19.693			-3.282
69205.000			19.692			-3.282
69304.000			19.692			-3.282
69404.000			19.691			-3.282
69505.000			19.690			-3.282
69603.000			19.689			-3.281
69704.000			19.689			-3.282
69805.000			19.689			-3.281
69904.000			19.688			-3.281
70004.000			19.686			-3.281
70105.000			19.687			-3.281
70204.000			19.686			-3.281
70303.000			19.685			-3.281
70405.000			19.685			-3.281
70504.000			19.684			-3.281
70604.000			19.683			-3.280
70705.000			19.682			-3.280
70804.000			19.682			-3.280
70905.000			19.681			-3.280
71003.000			19.681			-3.280
71104.000			19.680			-3.280
71205.000			19.680			-3.280
