# Acquired on 25/01/2024 14:17:17 
# SPIDER: Creep_5mm_GRPCNT1454A-3
# CREEP MEASUREMENT

# time [ms]		force [N]		stiffness [N/mm]
1.000			-21.731			-4.346
104.000			-22.307			-4.461
205.000			-22.312			-4.462
304.000			-22.109			-4.422
404.000			-21.944			-4.389
505.000			-21.710			-4.342
604.000			-21.619			-4.324
703.000			-21.539			-4.308
805.000			-21.468			-4.294
904.000			-21.404			-4.281
1005.000			-21.345			-4.269
1104.000			-21.293			-4.259
1203.000			-21.198			-4.240
1305.000			-21.155			-4.231
1404.000			-21.116			-4.223
1504.000			-21.078			-4.216
1605.000			-21.043			-4.209
1703.000			-21.009			-4.202
1804.000			-20.978			-4.196
1905.000			-20.917			-4.183
2004.000			-20.890			-4.178
2104.000			-20.864			-4.173
2205.000			-20.839			-4.168
2304.000			-20.815			-4.163
2403.000			-20.793			-4.159
2505.000			-20.769			-4.154
2604.000			-20.747			-4.149
2704.000			-20.706			-4.141
2805.000			-20.687			-4.137
2904.000			-20.668			-4.134
3004.000			-20.650			-4.130
3104.000			-20.632			-4.126
3204.000			-20.614			-4.123
3304.000			-20.596			-4.119
3405.000			-20.564			-4.113
3504.000			-20.548			-4.110
3603.000			-20.533			-4.107
3705.000			-20.518			-4.104
3804.000			-20.504			-4.101
3904.000			-20.490			-4.098
4005.000			-20.476			-4.095
4104.000			-20.450			-4.090
4205.000			-20.436			-4.087
4303.000			-20.423			-4.085
4404.000			-20.411			-4.082
4505.000			-20.399			-4.080
4604.000			-20.388			-4.078
4704.000			-20.376			-4.075
4804.000			-20.366			-4.073
4904.000			-20.344			-4.069
5004.000			-20.331			-4.066
5105.000			-20.321			-4.064
5204.000			-20.311			-4.062
5304.000			-20.300			-4.060
5405.000			-20.291			-4.058
5503.000			-20.282			-4.056
5604.000			-20.261			-4.052
5705.000			-20.252			-4.050
5804.000			-20.242			-4.048
5904.000			-20.234			-4.047
6004.000			-20.226			-4.045
6104.000			-20.217			-4.043
6204.000			-20.208			-4.042
6305.000			-20.190			-4.038
6404.000			-20.182			-4.036
6504.000			-20.174			-4.035
6605.000			-20.166			-4.033
6704.000			-20.158			-4.032
6804.000			-20.150			-4.030
6905.000			-20.142			-4.028
7004.000			-20.128			-4.026
7104.000			-20.120			-4.024
7203.000			-20.113			-4.023
7304.000			-20.106			-4.021
7405.000			-20.098			-4.020
7504.000			-20.092			-4.018
7604.000			-20.085			-4.017
7705.000			-20.078			-4.016
7804.000			-20.064			-4.013
7903.000			-20.058			-4.012
8005.000			-20.050			-4.010
8104.000			-20.044			-4.009
8204.000			-20.037			-4.007
8305.000			-20.031			-4.006
8403.000			-20.024			-4.005
8504.000			-20.013			-4.003
8605.000			-20.007			-4.001
8704.000			-20.000			-4.000
8804.000			-19.994			-3.999
8905.000			-19.989			-3.998
9004.000			-19.982			-3.996
9103.000			-19.977			-3.995
9205.000			-19.966			-3.993
9304.000			-19.961			-3.992
9404.000			-19.955			-3.991
9505.000			-19.950			-3.990
9604.000			-19.944			-3.989
9704.000			-19.938			-3.988
9804.000			-19.933			-3.987
9904.000			-19.922			-3.984
10004.000			-19.917			-3.983
10105.000			-19.913			-3.983
10204.000			-19.907			-3.981
10303.000			-19.901			-3.980
10405.000			-19.897			-3.979
10504.000			-19.891			-3.978
10605.000			-19.887			-3.977
10704.000			-19.878			-3.976
10804.000			-19.871			-3.974
10905.000			-19.866			-3.973
11004.000			-19.862			-3.972
11104.000			-19.858			-3.972
11204.000			-19.854			-3.971
11304.000			-19.848			-3.970
11404.000			-19.841			-3.968
11505.000			-19.836			-3.967
11604.000			-19.831			-3.966
11704.000			-19.826			-3.965
11805.000			-19.821			-3.964
11904.000			-19.816			-3.963
12004.000			-19.812			-3.962
12105.000			-19.805			-3.961
12204.000			-19.801			-3.960
12304.000			-19.797			-3.959
12404.000			-19.792			-3.958
12504.000			-19.788			-3.958
12603.000			-19.785			-3.957
12705.000			-19.781			-3.956
12804.000			-19.771			-3.954
12904.000			-19.768			-3.954
13005.000			-19.764			-3.953
13103.000			-19.760			-3.952
13204.000			-19.756			-3.951
13304.000			-19.752			-3.950
13404.000			-19.748			-3.950
13504.000			-19.745			-3.949
13604.000			-19.737			-3.947
13704.000			-19.733			-3.947
13805.000			-19.729			-3.946
13904.000			-19.725			-3.945
14003.000			-19.721			-3.944
14105.000			-19.718			-3.944
14204.000			-19.715			-3.943
14304.000			-19.708			-3.942
14405.000			-19.705			-3.941
14504.000			-19.701			-3.940
14604.000			-19.697			-3.939
14704.000			-19.693			-3.939
14804.000			-19.690			-3.938
14904.000			-19.686			-3.937
15005.000			-19.680			-3.936
15104.000			-19.676			-3.935
15204.000			-19.673			-3.935
15305.000			-19.670			-3.934
15403.000			-19.667			-3.933
15504.000			-19.663			-3.933
15605.000			-19.659			-3.932
15704.000			-19.653			-3.931
15804.000			-19.650			-3.930
15905.000			-19.647			-3.929
16004.000			-19.644			-3.929
16103.000			-19.641			-3.928
16205.000			-19.638			-3.928
16304.000			-19.635			-3.927
16404.000			-19.632			-3.926
16505.000			-19.624			-3.925
16604.000			-19.622			-3.924
16704.000			-19.619			-3.924
16803.000			-19.616			-3.923
16904.000			-19.613			-3.923
17005.000			-19.610			-3.922
17104.000			-19.607			-3.921
17204.000			-19.601			-3.920
17305.000			-19.598			-3.920
17404.000			-19.595			-3.919
17503.000			-19.592			-3.918
17605.000			-19.589			-3.918
17704.000			-19.586			-3.917
17804.000			-19.583			-3.917
17905.000			-19.578			-3.916
18004.000			-19.574			-3.915
18104.000			-19.573			-3.915
18204.000			-19.568			-3.914
18304.000			-19.566			-3.913
18404.000			-19.564			-3.913
18505.000			-19.561			-3.912
18604.000			-19.555			-3.911
18704.000			-19.553			-3.911
18805.000			-19.550			-3.910
18903.000			-19.549			-3.910
19004.000			-19.546			-3.909
19105.000			-19.542			-3.908
19204.000			-19.539			-3.908
19304.000			-19.538			-3.908
19405.000			-19.532			-3.906
19504.000			-19.529			-3.906
19603.000			-19.527			-3.905
19705.000			-19.524			-3.905
19804.000			-19.522			-3.904
19904.000			-19.520			-3.904
20005.000			-19.517			-3.903
20104.000			-19.512			-3.902
20205.000			-19.509			-3.902
20303.000			-19.506			-3.901
20404.000			-19.504			-3.901
20505.000			-19.502			-3.900
20604.000			-19.499			-3.900
20704.000			-19.497			-3.899
20804.000			-19.492			-3.898
20904.000			-19.490			-3.898
21003.000			-19.487			-3.897
21105.000			-19.484			-3.897
21204.000			-19.483			-3.897
21304.000			-19.479			-3.896
21405.000			-19.477			-3.895
21503.000			-19.475			-3.895
21604.000			-19.472			-3.894
21705.000			-19.469			-3.894
21804.000			-19.466			-3.893
21904.000			-19.464			-3.893
22005.000			-19.462			-3.892
22104.000			-19.460			-3.892
22203.000			-19.457			-3.891
22305.000			-19.453			-3.891
22404.000			-19.450			-3.890
22504.000			-19.447			-3.889
22605.000			-19.445			-3.889
22704.000			-19.443			-3.889
22804.000			-19.441			-3.888
22904.000			-19.440			-3.888
23004.000			-19.435			-3.887
23104.000			-19.433			-3.887
23204.000			-19.430			-3.886
23304.000			-19.427			-3.885
23405.000			-19.425			-3.885
23504.000			-19.423			-3.885
23603.000			-19.421			-3.884
23705.000			-19.417			-3.883
23804.000			-19.415			-3.883
23904.000			-19.413			-3.883
24005.000			-19.411			-3.882
24104.000			-19.409			-3.882
24204.000			-19.407			-3.881
24304.000			-19.405			-3.881
24404.000			-19.402			-3.880
24504.000			-19.399			-3.880
24605.000			-19.396			-3.879
24704.000			-19.394			-3.879
24803.000			-19.392			-3.878
24905.000			-19.390			-3.878
25003.000			-19.388			-3.878
25104.000			-19.385			-3.877
25205.000			-19.381			-3.876
25304.000			-19.381			-3.876
25404.000			-19.379			-3.876
25504.000			-19.377			-3.875
25604.000			-19.374			-3.875
25703.000			-19.371			-3.874
25805.000			-19.370			-3.874
25904.000			-19.365			-3.873
26004.000			-19.364			-3.873
26105.000			-19.364			-3.873
26203.000			-19.362			-3.872
26304.000			-19.359			-3.872
26405.000			-19.355			-3.871
26504.000			-19.354			-3.871
26605.000			-19.351			-3.870
26704.000			-19.349			-3.870
26804.000			-19.348			-3.870
26904.000			-19.346			-3.869
27004.000			-19.344			-3.869
27104.000			-19.343			-3.869
27205.000			-19.341			-3.868
27304.000			-19.339			-3.868
27404.000			-19.334			-3.867
27505.000			-19.332			-3.866
27603.000			-19.330			-3.866
27704.000			-19.328			-3.866
27805.000			-19.327			-3.865
27904.000			-19.326			-3.865
28004.000			-19.324			-3.865
28105.000			-19.320			-3.864
28204.000			-19.319			-3.864
28303.000			-19.317			-3.863
28405.000			-19.314			-3.863
28504.000			-19.313			-3.863
28604.000			-19.312			-3.862
28705.000			-19.310			-3.862
28804.000			-19.306			-3.861
28904.000			-19.305			-3.861
29004.000			-19.304			-3.861
29104.000			-19.301			-3.860
29204.000			-19.300			-3.860
29305.000			-19.298			-3.860
29404.000			-19.297			-3.859
29504.000			-19.293			-3.859
29605.000			-19.291			-3.858
29703.000			-19.289			-3.858
29805.000			-19.288			-3.858
29904.000			-19.287			-3.857
30004.000			-19.285			-3.857
30105.000			-19.283			-3.857
30204.000			-19.281			-3.856
30304.000			-19.276			-3.855
30404.000			-19.276			-3.855
30504.000			-19.275			-3.855
30604.000			-19.272			-3.854
30705.000			-19.271			-3.854
30804.000			-19.270			-3.854
30903.000			-19.267			-3.853
31005.000			-19.264			-3.853
31104.000			-19.263			-3.853
31204.000			-19.262			-3.852
31305.000			-19.260			-3.852
31404.000			-19.258			-3.852
31504.000			-19.256			-3.851
31604.000			-19.255			-3.851
31704.000			-19.252			-3.850
31804.000			-19.250			-3.850
31905.000			-19.249			-3.850
32004.000			-19.248			-3.850
32104.000			-19.245			-3.849
32205.000			-19.244			-3.849
32303.000			-19.243			-3.849
32404.000			-19.241			-3.848
32505.000			-19.240			-3.848
32604.000			-19.237			-3.847
32704.000			-19.235			-3.847
32804.000			-19.233			-3.847
32904.000			-19.231			-3.846
33003.000			-19.230			-3.846
33104.000			-19.229			-3.846
33204.000			-19.225			-3.845
33305.000			-19.224			-3.845
33404.000			-19.223			-3.845
33503.000			-19.222			-3.844
33605.000			-19.220			-3.844
33704.000			-19.218			-3.844
33804.000			-19.217			-3.843
33905.000			-19.214			-3.843
34004.000			-19.214			-3.843
34104.000			-19.212			-3.842
34204.000			-19.210			-3.842
34304.000			-19.208			-3.842
34404.000			-19.207			-3.841
34505.000			-19.206			-3.841
34604.000			-19.203			-3.841
34704.000			-19.201			-3.840
34805.000			-19.200			-3.840
34903.000			-19.198			-3.840
35004.000			-19.197			-3.839
35105.000			-19.196			-3.839
35204.000			-19.194			-3.839
35304.000			-19.190			-3.838
35405.000			-19.189			-3.838
35504.000			-19.188			-3.838
35603.000			-19.187			-3.837
35705.000			-19.186			-3.837
35804.000			-19.185			-3.837
35904.000			-19.183			-3.837
36005.000			-19.182			-3.836
36103.000			-19.179			-3.836
36205.000			-19.178			-3.836
36304.000			-19.175			-3.835
36404.000			-19.174			-3.835
36505.000			-19.173			-3.835
36604.000			-19.171			-3.834
36704.000			-19.170			-3.834
36804.000			-19.167			-3.833
36904.000			-19.167			-3.833
37004.000			-19.166			-3.833
37105.000			-19.165			-3.833
37204.000			-19.163			-3.833
37304.000			-19.161			-3.832
37405.000			-19.160			-3.832
37503.000			-19.157			-3.831
37604.000			-19.155			-3.831
37705.000			-19.154			-3.831
37804.000			-19.153			-3.831
37904.000			-19.152			-3.830
38005.000			-19.150			-3.830
38104.000			-19.149			-3.830
38203.000			-19.148			-3.830
38305.000			-19.145			-3.829
38404.000			-19.144			-3.829
38504.000			-19.144			-3.829
38605.000			-19.142			-3.828
38704.000			-19.140			-3.828
38804.000			-19.139			-3.828
38904.000			-19.137			-3.827
39004.000			-19.135			-3.827
39104.000			-19.134			-3.827
39204.000			-19.133			-3.827
39304.000			-19.132			-3.826
39405.000			-19.130			-3.826
39504.000			-19.129			-3.826
39603.000			-19.128			-3.826
39705.000			-19.125			-3.825
39804.000			-19.124			-3.825
39904.000			-19.122			-3.824
40005.000			-19.121			-3.824
40104.000			-19.119			-3.824
40204.000			-19.118			-3.824
40304.000			-19.117			-3.823
40404.000			-19.114			-3.823
40504.000			-19.114			-3.823
40605.000			-19.113			-3.823
40704.000			-19.112			-3.822
40803.000			-19.111			-3.822
40905.000			-19.109			-3.822
41004.000			-19.107			-3.821
41104.000			-19.106			-3.821
41205.000			-19.105			-3.821
41304.000			-19.102			-3.820
41404.000			-19.102			-3.820
41504.000			-19.101			-3.820
41604.000			-19.100			-3.820
41704.000			-19.098			-3.820
41805.000			-19.097			-3.819
41904.000			-19.095			-3.819
42004.000			-19.094			-3.819
42105.000			-19.093			-3.819
42203.000			-19.091			-3.818
42304.000			-19.090			-3.818
42405.000			-19.089			-3.818
42504.000			-19.088			-3.818
42605.000			-19.085			-3.817
42704.000			-19.085			-3.817
42804.000			-19.084			-3.817
42904.000			-19.082			-3.816
43004.000			-19.080			-3.816
43104.000			-19.079			-3.816
43205.000			-19.078			-3.816
43304.000			-19.078			-3.816
43404.000			-19.076			-3.815
43505.000			-19.074			-3.815
43603.000			-19.073			-3.815
43704.000			-19.072			-3.814
43805.000			-19.071			-3.814
43904.000			-19.070			-3.814
44004.000			-19.068			-3.814
44105.000			-19.066			-3.813
44204.000			-19.065			-3.813
44303.000			-19.064			-3.813
44405.000			-19.063			-3.813
44504.000			-19.061			-3.812
44604.000			-19.059			-3.812
44705.000			-19.058			-3.812
44804.000			-19.055			-3.811
44904.000			-19.055			-3.811
45004.000			-19.054			-3.811
45104.000			-19.053			-3.811
45204.000			-19.052			-3.810
45305.000			-19.051			-3.810
45404.000			-19.051			-3.810
45503.000			-19.048			-3.810
45605.000			-19.048			-3.810
45704.000			-19.046			-3.809
45805.000			-19.045			-3.809
45904.000			-19.044			-3.809
46004.000			-19.042			-3.808
46105.000			-19.041			-3.808
46203.000			-19.040			-3.808
46304.000			-19.038			-3.808
46405.000			-19.037			-3.807
46504.000			-19.036			-3.807
46604.000			-19.035			-3.807
46705.000			-19.035			-3.807
46804.000			-19.034			-3.807
46903.000			-19.032			-3.806
47005.000			-19.029			-3.806
47104.000			-19.028			-3.806
47204.000			-19.026			-3.805
47305.000			-19.026			-3.805
47404.000			-19.026			-3.805
47504.000			-19.025			-3.805
47604.000			-19.023			-3.805
47704.000			-19.021			-3.804
47804.000			-19.021			-3.804
47905.000			-19.019			-3.804
48004.000			-19.017			-3.803
48104.000			-19.017			-3.803
48205.000			-19.017			-3.803
48303.000			-19.016			-3.803
48404.000			-19.014			-3.803
48505.000			-19.012			-3.802
48604.000			-19.011			-3.802
48704.000			-19.010			-3.802
48804.000			-19.009			-3.802
48904.000			-19.008			-3.802
49003.000			-19.007			-3.801
49104.000			-19.006			-3.801
49204.000			-19.004			-3.801
49305.000			-19.003			-3.801
49404.000			-19.003			-3.801
49504.000			-19.002			-3.800
49605.000			-19.001			-3.800
49704.000			-19.000			-3.800
49804.000			-18.998			-3.800
49905.000			-18.997			-3.799
50004.000			-18.996			-3.799
50104.000			-18.995			-3.799
50205.000			-18.993			-3.799
50304.000			-18.991			-3.798
50403.000			-18.990			-3.798
50505.000			-18.990			-3.798
50604.000			-18.988			-3.798
50704.000			-18.987			-3.797
50805.000			-18.986			-3.797
50904.000			-18.985			-3.797
51004.000			-18.984			-3.797
51104.000			-18.983			-3.797
51204.000			-18.982			-3.796
51304.000			-18.980			-3.796
51405.000			-18.978			-3.796
51504.000			-18.978			-3.796
51604.000			-18.977			-3.795
51705.000			-18.976			-3.795
51803.000			-18.975			-3.795
51904.000			-18.974			-3.795
52005.000			-18.973			-3.795
52104.000			-18.973			-3.795
52205.000			-18.971			-3.794
52304.000			-18.970			-3.794
52404.000			-18.969			-3.794
52504.000			-18.968			-3.794
52604.000			-18.967			-3.793
52704.000			-18.966			-3.793
52805.000			-18.965			-3.793
52904.000			-18.964			-3.793
53004.000			-18.962			-3.792
53105.000			-18.960			-3.792
53203.000			-18.960			-3.792
53304.000			-18.959			-3.792
53405.000			-18.959			-3.792
53504.000			-18.956			-3.791
53604.000			-18.956			-3.791
53705.000			-18.955			-3.791
53804.000			-18.955			-3.791
53903.000			-18.954			-3.791
54005.000			-18.952			-3.790
54104.000			-18.952			-3.790
54204.000			-18.949			-3.790
54305.000			-18.948			-3.790
54404.000			-18.948			-3.790
54504.000			-18.947			-3.789
54604.000			-18.946			-3.789
54704.000			-18.945			-3.789
54804.000			-18.944			-3.789
54905.000			-18.944			-3.789
55004.000			-18.941			-3.788
55104.000			-18.941			-3.788
55205.000			-18.940			-3.788
55303.000			-18.939			-3.788
55405.000			-18.937			-3.787
55504.000			-18.937			-3.787
55604.000			-18.935			-3.787
55705.000			-18.933			-3.787
55804.000			-18.933			-3.787
55904.000			-18.933			-3.787
56004.000			-18.933			-3.787
56104.000			-18.931			-3.786
56204.000			-18.931			-3.786
56305.000			-18.929			-3.786
56404.000			-18.927			-3.785
56504.000			-18.926			-3.785
56605.000			-18.926			-3.785
56703.000			-18.925			-3.785
56804.000			-18.923			-3.785
56905.000			-18.923			-3.785
57004.000			-18.921			-3.784
57104.000			-18.920			-3.784
57205.000			-18.919			-3.784
57304.000			-18.919			-3.784
57403.000			-18.919			-3.784
57505.000			-18.917			-3.783
57604.000			-18.916			-3.783
57704.000			-18.915			-3.783
57805.000			-18.915			-3.783
57904.000			-18.913			-3.783
58004.000			-18.911			-3.782
58104.000			-18.910			-3.782
58204.000			-18.909			-3.782
58304.000			-18.908			-3.782
58404.000			-18.909			-3.782
58504.000			-18.908			-3.782
58605.000			-18.905			-3.781
58704.000			-18.905			-3.781
58803.000			-18.904			-3.781
58905.000			-18.904			-3.781
59004.000			-18.902			-3.780
59104.000			-18.901			-3.780
59205.000			-18.900			-3.780
59304.000			-18.899			-3.780
59404.000			-18.898			-3.780
59504.000			-18.897			-3.779
59604.000			-18.897			-3.779
59704.000			-18.896			-3.779
59805.000			-18.895			-3.779
59904.000			-18.894			-3.779
60004.000			-18.892			-3.778
60105.000			-18.891			-3.778
60203.000			-18.891			-3.778
60304.000			-18.890			-3.778
60405.000			-18.889			-3.778
60504.000			-18.889			-3.778
60604.000			-18.887			-3.777
60705.000			-18.887			-3.777
60804.000			-18.885			-3.777
60903.000			-18.884			-3.777
61005.000			-18.884			-3.777
61104.000			-18.883			-3.777
61204.000			-18.883			-3.777
61305.000			-18.882			-3.776
61404.000			-18.881			-3.776
61504.000			-18.879			-3.776
61603.000			-18.879			-3.776
61704.000			-18.877			-3.775
61805.000			-18.876			-3.775
61904.000			-18.875			-3.775
62004.000			-18.874			-3.775
62105.000			-18.874			-3.775
62204.000			-18.873			-3.775
62303.000			-18.872			-3.774
62405.000			-18.871			-3.774
62504.000			-18.870			-3.774
62604.000			-18.869			-3.774
62705.000			-18.870			-3.774
62804.000			-18.868			-3.774
62904.000			-18.867			-3.773
63004.000			-18.865			-3.773
63104.000			-18.864			-3.773
63204.000			-18.864			-3.773
63305.000			-18.863			-3.773
63404.000			-18.862			-3.772
63504.000			-18.862			-3.772
63605.000			-18.861			-3.772
63703.000			-18.859			-3.772
63804.000			-18.858			-3.772
63905.000			-18.857			-3.771
64004.000			-18.857			-3.771
64104.000			-18.857			-3.771
64205.000			-18.856			-3.771
64304.000			-18.856			-3.771
64403.000			-18.853			-3.771
64505.000			-18.853			-3.771
64604.000			-18.853			-3.771
64704.000			-18.851			-3.770
64805.000			-18.851			-3.770
64904.000			-18.850			-3.770
65005.000			-18.849			-3.770
65103.000			-18.847			-3.769
65204.000			-18.846			-3.769
65305.000			-18.845			-3.769
65404.000			-18.845			-3.769
65504.000			-18.844			-3.769
65605.000			-18.843			-3.769
65704.000			-18.842			-3.768
65803.000			-18.841			-3.768
65905.000			-18.840			-3.768
66004.000			-18.840			-3.768
66104.000			-18.839			-3.768
66205.000			-18.838			-3.768
66304.000			-18.838			-3.768
66404.000			-18.836			-3.767
66504.000			-18.836			-3.767
66604.000			-18.836			-3.767
66704.000			-18.834			-3.767
66805.000			-18.832			-3.766
66904.000			-18.831			-3.766
67004.000			-18.831			-3.766
67105.000			-18.830			-3.766
67203.000			-18.830			-3.766
67304.000			-18.829			-3.766
67405.000			-18.828			-3.766
67504.000			-18.827			-3.765
67604.000			-18.827			-3.765
67705.000			-18.827			-3.765
67804.000			-18.825			-3.765
67903.000			-18.825			-3.765
68005.000			-18.823			-3.765
68104.000			-18.822			-3.764
68205.000			-18.821			-3.764
68304.000			-18.822			-3.764
68404.000			-18.821			-3.764
68505.000			-18.821			-3.764
68604.000			-18.819			-3.764
68704.000			-18.818			-3.764
68804.000			-18.817			-3.763
