# Acquired on 08/01/2024 15:45:34 
# SPIDER: Creep_-4mm_07714532C-1
# CREEP MEASUREMENT

# time [ms]		force [N]		stiffness [N/mm]
1.000			4.633			-1.158
102.000			4.999			-1.250
200.000			5.133			-1.283
300.000			5.134			-1.283
401.000			5.109			-1.277
500.000			5.090			-1.272
600.000			5.075			-1.269
702.000			5.051			-1.263
801.000			5.042			-1.260
900.000			5.032			-1.258
1001.000			5.024			-1.256
1100.000			5.018			-1.255
1200.000			5.011			-1.253
1301.000			5.005			-1.251
1401.000			4.993			-1.248
1501.000			4.988			-1.247
1601.000			4.983			-1.246
1700.000			4.978			-1.245
1801.000			4.974			-1.243
1900.000			4.970			-1.243
2000.000			4.965			-1.241
2101.000			4.957			-1.239
2201.000			4.953			-1.238
2301.000			4.950			-1.237
2401.000			4.946			-1.237
2500.000			4.944			-1.236
2600.000			4.940			-1.235
2701.000			4.938			-1.234
2800.000			4.932			-1.233
2901.000			4.929			-1.232
3002.000			4.926			-1.231
3100.000			4.924			-1.231
3200.000			4.921			-1.230
3301.000			4.919			-1.230
3400.000			4.917			-1.229
3500.000			4.915			-1.229
3601.000			4.911			-1.228
3701.000			4.909			-1.227
3801.000			4.906			-1.226
3901.000			4.904			-1.226
4000.000			4.902			-1.226
4100.000			4.900			-1.225
4201.000			4.898			-1.224
4300.000			4.894			-1.224
4400.000			4.892			-1.223
4502.000			4.890			-1.222
4601.000			4.889			-1.222
4700.000			4.888			-1.222
4801.000			4.885			-1.221
4900.000			4.883			-1.221
5001.000			4.880			-1.220
5100.000			4.879			-1.220
5200.000			4.877			-1.219
5302.000			4.877			-1.219
5401.000			4.874			-1.219
5500.000			4.872			-1.218
5601.000			4.872			-1.218
5700.000			4.869			-1.217
5800.000			4.867			-1.217
5901.000			4.866			-1.217
6001.000			4.865			-1.216
6101.000			4.863			-1.216
6201.000			4.861			-1.215
6300.000			4.861			-1.215
6400.000			4.858			-1.215
6501.000			4.857			-1.214
6600.000			4.856			-1.214
6700.000			4.854			-1.213
6802.000			4.853			-1.213
6901.000			4.851			-1.213
7000.000			4.850			-1.213
7101.000			4.849			-1.212
7200.000			4.848			-1.212
7300.000			4.846			-1.212
7401.000			4.845			-1.211
7500.000			4.844			-1.211
7601.000			4.843			-1.211
7702.000			4.842			-1.211
7800.000			4.841			-1.210
7900.000			4.840			-1.210
8001.000			4.838			-1.210
8100.000			4.838			-1.209
8201.000			4.837			-1.209
8301.000			4.836			-1.209
8401.000			4.835			-1.209
8501.000			4.833			-1.208
8600.000			4.832			-1.208
8700.000			4.831			-1.208
8801.000			4.830			-1.207
8900.000			4.828			-1.207
9000.000			4.827			-1.207
9102.000			4.826			-1.207
9201.000			4.825			-1.206
9300.000			4.825			-1.206
9401.000			4.823			-1.206
9500.000			4.821			-1.205
9600.000			4.821			-1.205
9701.000			4.821			-1.205
9800.000			4.820			-1.205
9901.000			4.820			-1.205
10002.000			4.819			-1.205
10100.000			4.817			-1.204
10200.000			4.816			-1.204
10301.000			4.815			-1.204
10400.000			4.815			-1.204
10500.000			4.815			-1.204
10601.000			4.813			-1.203
10701.000			4.812			-1.203
10801.000			4.810			-1.203
10901.000			4.810			-1.202
11000.000			4.809			-1.202
11100.000			4.808			-1.202
11201.000			4.808			-1.202
11300.000			4.807			-1.202
11401.000			4.806			-1.202
11501.000			4.805			-1.201
11601.000			4.804			-1.201
11701.000			4.803			-1.201
11800.000			4.803			-1.201
11900.000			4.803			-1.201
12001.000			4.801			-1.200
12100.000			4.801			-1.200
12201.000			4.800			-1.200
12302.000			4.799			-1.200
12401.000			4.798			-1.199
12500.000			4.798			-1.200
12601.000			4.798			-1.199
12700.000			4.797			-1.199
12800.000			4.796			-1.199
12901.000			4.796			-1.199
13000.000			4.794			-1.199
13101.000			4.793			-1.198
13202.000			4.793			-1.198
13300.000			4.792			-1.198
13400.000			4.792			-1.198
13501.000			4.790			-1.198
13600.000			4.790			-1.197
13700.000			4.787			-1.197
13802.000			4.787			-1.197
13901.000			4.788			-1.197
14001.000			4.788			-1.197
14101.000			4.787			-1.197
14200.000			4.786			-1.196
14300.000			4.786			-1.197
14401.000			4.785			-1.196
14500.000			4.784			-1.196
14601.000			4.783			-1.196
14701.000			4.782			-1.196
14801.000			4.782			-1.196
14901.000			4.781			-1.195
15000.000			4.781			-1.195
15100.000			4.781			-1.195
15201.000			4.779			-1.195
15300.000			4.779			-1.195
15400.000			4.778			-1.195
15502.000			4.778			-1.194
15601.000			4.777			-1.194
15700.000			4.777			-1.194
15801.000			4.776			-1.194
15900.000			4.775			-1.194
16000.000			4.774			-1.194
16101.000			4.774			-1.193
16200.000			4.774			-1.193
16301.000			4.773			-1.193
16402.000			4.773			-1.193
16500.000			4.772			-1.193
16600.000			4.773			-1.193
16701.000			4.772			-1.193
16800.000			4.771			-1.193
16900.000			4.771			-1.193
17001.000			4.771			-1.193
17101.000			4.771			-1.193
17201.000			4.769			-1.192
17301.000			4.768			-1.192
17400.000			4.767			-1.192
17500.000			4.767			-1.192
17601.000			4.766			-1.192
17700.000			4.766			-1.192
17801.000			4.766			-1.191
17901.000			4.765			-1.191
18001.000			4.764			-1.191
18101.000			4.764			-1.191
18200.000			4.764			-1.191
18300.000			4.764			-1.191
18401.000			4.762			-1.191
18500.000			4.762			-1.190
18600.000			4.762			-1.191
18702.000			4.762			-1.190
18801.000			4.761			-1.190
18900.000			4.760			-1.190
19001.000			4.761			-1.190
19100.000			4.760			-1.190
19200.000			4.759			-1.190
19301.000			4.759			-1.190
19400.000			4.758			-1.190
19501.000			4.757			-1.189
19602.000			4.756			-1.189
19700.000			4.756			-1.189
19800.000			4.756			-1.189
19901.000			4.756			-1.189
20000.000			4.755			-1.189
20100.000			4.754			-1.189
20201.000			4.753			-1.188
20301.000			4.752			-1.188
20401.000			4.751			-1.188
20501.000			4.752			-1.188
20600.000			4.752			-1.188
20700.000			4.752			-1.188
20801.000			4.751			-1.188
20900.000			4.750			-1.188
21001.000			4.750			-1.187
21101.000			4.749			-1.187
21201.000			4.749			-1.187
21301.000			4.749			-1.187
21400.000			4.749			-1.187
21500.000			4.748			-1.187
21601.000			4.748			-1.187
21700.000			4.747			-1.187
21800.000			4.747			-1.187
21902.000			4.747			-1.187
22001.000			4.747			-1.187
22100.000			4.746			-1.187
22201.000			4.745			-1.186
22300.000			4.744			-1.186
22400.000			4.744			-1.186
22501.000			4.744			-1.186
22600.000			4.744			-1.186
22701.000			4.743			-1.186
22802.000			4.742			-1.186
22900.000			4.742			-1.185
23000.000			4.743			-1.186
23101.000			4.742			-1.185
23200.000			4.741			-1.185
23300.000			4.741			-1.185
23401.000			4.741			-1.185
23501.000			4.740			-1.185
23601.000			4.739			-1.185
23701.000			4.739			-1.185
23800.000			4.739			-1.185
23900.000			4.738			-1.184
24001.000			4.738			-1.184
24100.000			4.738			-1.184
24201.000			4.737			-1.184
24301.000			4.737			-1.184
24401.000			4.737			-1.184
24501.000			4.736			-1.184
24600.000			4.736			-1.184
24700.000			4.736			-1.184
24801.000			4.735			-1.184
24900.000			4.734			-1.184
25000.000			4.734			-1.184
25102.000			4.734			-1.183
25201.000			4.733			-1.183
25300.000			4.733			-1.183
25401.000			4.734			-1.184
25500.000			4.733			-1.183
25600.000			4.732			-1.183
25701.000			4.732			-1.183
25800.000			4.731			-1.183
25901.000			4.731			-1.183
26002.000			4.731			-1.183
26100.000			4.731			-1.183
26200.000			4.730			-1.183
26301.000			4.730			-1.182
26400.000			4.729			-1.182
26500.000			4.729			-1.182
26601.000			4.730			-1.182
26701.000			4.729			-1.182
26801.000			4.728			-1.182
26901.000			4.728			-1.182
27000.000			4.728			-1.182
27100.000			4.728			-1.182
27201.000			4.727			-1.182
27300.000			4.727			-1.182
27401.000			4.726			-1.182
27501.000			4.726			-1.181
27601.000			4.725			-1.181
27701.000			4.724			-1.181
27800.000			4.724			-1.181
27900.000			4.724			-1.181
28001.000			4.724			-1.181
28100.000			4.724			-1.181
28200.000			4.724			-1.181
28302.000			4.724			-1.181
28401.000			4.724			-1.181
28500.000			4.722			-1.181
28601.000			4.722			-1.181
28700.000			4.722			-1.181
28800.000			4.722			-1.181
28901.000			4.722			-1.180
29000.000			4.721			-1.180
29101.000			4.720			-1.180
29202.000			4.720			-1.180
29300.000			4.720			-1.180
29400.000			4.720			-1.180
29501.000			4.719			-1.180
29600.000			4.720			-1.180
29700.000			4.718			-1.180
29801.000			4.719			-1.180
29901.000			4.719			-1.180
30001.000			4.719			-1.180
30101.000			4.718			-1.179
30200.000			4.717			-1.179
30300.000			4.716			-1.179
30401.000			4.716			-1.179
30500.000			4.715			-1.179
30602.000			4.715			-1.179
30701.000			4.716			-1.179
30801.000			4.716			-1.179
30901.000			4.716			-1.179
31000.000			4.714			-1.179
31100.000			4.715			-1.179
31201.000			4.714			-1.178
31300.000			4.714			-1.179
31401.000			4.713			-1.178
31502.000			4.714			-1.179
31600.000			4.714			-1.179
31700.000			4.714			-1.178
31801.000			4.713			-1.178
31900.000			4.713			-1.178
32000.000			4.713			-1.178
32101.000			4.712			-1.178
32201.000			4.712			-1.178
32301.000			4.712			-1.178
32401.000			4.711			-1.178
32500.000			4.710			-1.177
32600.000			4.711			-1.178
32701.000			4.710			-1.178
32800.000			4.710			-1.178
32900.000			4.711			-1.178
33002.000			4.710			-1.177
33101.000			4.709			-1.177
33200.000			4.708			-1.177
33301.000			4.708			-1.177
33400.000			4.709			-1.177
33500.000			4.708			-1.177
33601.000			4.708			-1.177
33700.000			4.707			-1.177
33802.000			4.707			-1.177
33901.000			4.707			-1.177
34000.000			4.707			-1.177
34101.000			4.707			-1.177
34200.000			4.706			-1.176
34300.000			4.706			-1.177
34401.000			4.706			-1.176
34500.000			4.706			-1.176
34601.000			4.706			-1.176
34702.000			4.704			-1.176
34800.000			4.704			-1.176
34900.000			4.705			-1.176
35001.000			4.705			-1.176
35100.000			4.704			-1.176
35200.000			4.704			-1.176
35301.000			4.703			-1.176
35401.000			4.704			-1.176
35501.000			4.703			-1.176
35601.000			4.703			-1.176
35700.000			4.703			-1.176
35800.000			4.703			-1.176
35901.000			4.702			-1.176
36000.000			4.701			-1.175
36100.000			4.701			-1.175
36202.000			4.701			-1.175
36301.000			4.701			-1.175
36400.000			4.702			-1.175
36501.000			4.701			-1.175
36600.000			4.701			-1.175
36700.000			4.700			-1.175
36801.000			4.700			-1.175
36900.000			4.699			-1.175
37002.000			4.699			-1.175
37101.000			4.699			-1.175
37200.000			4.699			-1.175
37301.000			4.699			-1.175
37400.000			4.698			-1.174
37500.000			4.698			-1.175
37601.000			4.697			-1.174
37700.000			4.698			-1.174
37800.000			4.698			-1.174
37902.000			4.698			-1.174
38001.000			4.698			-1.175
38100.000			4.697			-1.174
38201.000			4.698			-1.174
38300.000			4.696			-1.174
38400.000			4.696			-1.174
38501.000			4.697			-1.174
38600.000			4.696			-1.174
38701.000			4.695			-1.174
38802.000			4.694			-1.174
38900.000			4.695			-1.174
39000.000			4.694			-1.173
39101.000			4.694			-1.173
39200.000			4.694			-1.174
39300.000			4.694			-1.174
39401.000			4.693			-1.173
39501.000			4.692			-1.173
39601.000			4.692			-1.173
39701.000			4.692			-1.173
39800.000			4.693			-1.173
39900.000			4.693			-1.173
40001.000			4.692			-1.173
40100.000			4.692			-1.173
40201.000			4.692			-1.173
40301.000			4.692			-1.173
40401.000			4.691			-1.173
40501.000			4.691			-1.173
40600.000			4.691			-1.173
40700.000			4.690			-1.173
40801.000			4.691			-1.173
40900.000			4.691			-1.173
41000.000			4.690			-1.172
41102.000			4.689			-1.172
41201.000			4.690			-1.173
41300.000			4.690			-1.173
41401.000			4.691			-1.173
41500.000			4.690			-1.172
41600.000			4.689			-1.172
41701.000			4.689			-1.172
41800.000			4.688			-1.172
41901.000			4.688			-1.172
42002.000			4.688			-1.172
42101.000			4.687			-1.172
42200.000			4.687			-1.172
42301.000			4.688			-1.172
42400.000			4.687			-1.172
42500.000			4.687			-1.172
42601.000			4.687			-1.172
42701.000			4.685			-1.171
42801.000			4.686			-1.172
42902.000			4.687			-1.172
43000.000			4.687			-1.172
43100.000			4.686			-1.171
43201.000			4.686			-1.171
43300.000			4.685			-1.171
43401.000			4.686			-1.171
43500.000			4.685			-1.171
43601.000			4.684			-1.171
43702.000			4.684			-1.171
43800.000			4.684			-1.171
43900.000			4.684			-1.171
44001.000			4.683			-1.171
44100.000			4.683			-1.171
44200.000			4.684			-1.171
44301.000			4.682			-1.171
44401.000			4.682			-1.170
44501.000			4.683			-1.171
44601.000			4.683			-1.171
44700.000			4.683			-1.171
44800.000			4.683			-1.171
44901.000			4.683			-1.171
45000.000			4.683			-1.171
45100.000			4.682			-1.171
45202.000			4.681			-1.170
45301.000			4.681			-1.170
45400.000			4.681			-1.170
45501.000			4.680			-1.170
45600.000			4.682			-1.170
45700.000			4.681			-1.170
45801.000			4.681			-1.170
45900.000			4.680			-1.170
46001.000			4.680			-1.170
46102.000			4.679			-1.170
46200.000			4.679			-1.170
46300.000			4.680			-1.170
46401.000			4.681			-1.170
46500.000			4.679			-1.170
46601.000			4.679			-1.170
46700.000			4.678			-1.170
46801.000			4.678			-1.170
46902.000			4.678			-1.170
47001.000			4.678			-1.169
47100.000			4.678			-1.169
47201.000			4.677			-1.169
47300.000			4.677			-1.169
47400.000			4.677			-1.169
47501.000			4.677			-1.169
47600.000			4.677			-1.169
47701.000			4.677			-1.169
47802.000			4.676			-1.169
47900.000			4.676			-1.169
48000.000			4.676			-1.169
48101.000			4.676			-1.169
48200.000			4.676			-1.169
48300.000			4.676			-1.169
48401.000			4.676			-1.169
48501.000			4.676			-1.169
48601.000			4.675			-1.169
48701.000			4.674			-1.169
48800.000			4.675			-1.169
48900.000			4.675			-1.169
49001.000			4.674			-1.169
49100.000			4.674			-1.168
49200.000			4.674			-1.169
49302.000			4.674			-1.168
49401.000			4.672			-1.168
49501.000			4.672			-1.168
49601.000			4.673			-1.168
49700.000			4.672			-1.168
49801.000			4.672			-1.168
49900.000			4.673			-1.168
50000.000			4.673			-1.168
50101.000			4.672			-1.168
50201.000			4.671			-1.168
50301.000			4.673			-1.168
50401.000			4.673			-1.168
50500.000			4.672			-1.168
50600.000			4.673			-1.168
50701.000			4.672			-1.168
50800.000			4.671			-1.168
50900.000			4.670			-1.168
51002.000			4.670			-1.167
51101.000			4.669			-1.167
51200.000			4.670			-1.167
51301.000			4.671			-1.168
51400.000			4.670			-1.168
51500.000			4.671			-1.168
51601.000			4.670			-1.167
51700.000			4.669			-1.167
51801.000			4.669			-1.167
51902.000			4.670			-1.167
52000.000			4.669			-1.167
52100.000			4.669			-1.167
52201.000			4.668			-1.167
52300.000			4.668			-1.167
52400.000			4.668			-1.167
52501.000			4.668			-1.167
52601.000			4.669			-1.167
52701.000			4.668			-1.167
52801.000			4.667			-1.167
52900.000			4.667			-1.167
53001.000			4.667			-1.167
53100.000			4.667			-1.167
53200.000			4.667			-1.167
53301.000			4.666			-1.167
53401.000			4.667			-1.167
53501.000			4.666			-1.167
53601.000			4.665			-1.166
53700.000			4.666			-1.166
53800.000			4.665			-1.166
53901.000			4.665			-1.166
54000.000			4.665			-1.166
54100.000			4.666			-1.166
54202.000			4.666			-1.166
54301.000			4.665			-1.166
54400.000			4.665			-1.166
54501.000			4.665			-1.166
54600.000			4.665			-1.166
54700.000			4.666			-1.166
54801.000			4.665			-1.166
54900.000			4.664			-1.166
55000.000			4.664			-1.166
55102.000			4.664			-1.166
55201.000			4.665			-1.166
55300.000			4.664			-1.166
55401.000			4.664			-1.166
55500.000			4.664			-1.166
55600.000			4.664			-1.166
55701.000			4.663			-1.166
55801.000			4.662			-1.166
55901.000			4.662			-1.166
56002.000			4.662			-1.165
56100.000			4.662			-1.165
56201.000			4.662			-1.165
56300.000			4.661			-1.165
56400.000			4.661			-1.165
56501.000			4.663			-1.166
56600.000			4.662			-1.166
56701.000			4.662			-1.165
56802.000			4.662			-1.165
56900.000			4.661			-1.165
57000.000			4.661			-1.165
57101.000			4.660			-1.165
57200.000			4.660			-1.165
57300.000			4.661			-1.165
57401.000			4.660			-1.165
57501.000			4.660			-1.165
57601.000			4.659			-1.165
57701.000			4.660			-1.165
57800.000			4.660			-1.165
57900.000			4.660			-1.165
58001.000			4.661			-1.165
58100.000			4.659			-1.165
58200.000			4.658			-1.165
58302.000			4.658			-1.165
58401.000			4.658			-1.165
58500.000			4.659			-1.165
58601.000			4.659			-1.165
58700.000			4.659			-1.165
58800.000			4.659			-1.165
58901.000			4.658			-1.164
59000.000			4.657			-1.164
59100.000			4.657			-1.164
59202.000			4.657			-1.164
59301.000			4.657			-1.164
59401.000			4.657			-1.164
59500.000			4.657			-1.164
59600.000			4.656			-1.164
59701.000			4.656			-1.164
59800.000			4.656			-1.164
59900.000			4.657			-1.164
60002.000			4.657			-1.164
60101.000			4.656			-1.164
60200.000			4.656			-1.164
60301.000			4.656			-1.164
60400.000			4.656			-1.164
60500.000			4.655			-1.164
60601.000			4.656			-1.164
60700.000			4.656			-1.164
60801.000			4.655			-1.164
60902.000			4.654			-1.163
61000.000			4.654			-1.164
61100.000			4.655			-1.164
61201.000			4.654			-1.164
61300.000			4.655			-1.164
61400.000			4.655			-1.164
61501.000			4.654			-1.164
61601.000			4.654			-1.163
61701.000			4.653			-1.163
61801.000			4.653			-1.163
61900.000			4.654			-1.163
62000.000			4.655			-1.164
62101.000			4.654			-1.163
62200.000			4.653			-1.163
62300.000			4.652			-1.163
62402.000			4.652			-1.163
62501.000			4.653			-1.163
62601.000			4.653			-1.163
62700.000			4.652			-1.163
62800.000			4.651			-1.163
62901.000			4.652			-1.163
63000.000			4.652			-1.163
63100.000			4.652			-1.163
63202.000			4.652			-1.163
63301.000			4.652			-1.163
63400.000			4.652			-1.163
63501.000			4.651			-1.163
63600.000			4.652			-1.163
63700.000			4.651			-1.163
63801.000			4.652			-1.163
63900.000			4.652			-1.163
64001.000			4.651			-1.163
64102.000			4.650			-1.163
64200.000			4.650			-1.163
64300.000			4.650			-1.163
64401.000			4.649			-1.162
64500.000			4.650			-1.163
64600.000			4.650			-1.163
64701.000			4.650			-1.163
64801.000			4.650			-1.162
64901.000			4.650			-1.163
65001.000			4.650			-1.162
65100.000			4.649			-1.162
65200.000			4.650			-1.163
65301.000			4.650			-1.163
65400.000			4.649			-1.162
65500.000			4.649			-1.162
65602.000			4.649			-1.162
65701.000			4.649			-1.162
65801.000			4.648			-1.162
65900.000			4.648			-1.162
66000.000			4.648			-1.162
66101.000			4.649			-1.162
66200.000			4.648			-1.162
66300.000			4.647			-1.162
66402.000			4.648			-1.162
66501.000			4.648			-1.162
66601.000			4.648			-1.162
66701.000			4.648			-1.162
66800.000			4.648			-1.162
66900.000			4.647			-1.162
67001.000			4.646			-1.162
67100.000			4.646			-1.162
67200.000			4.647			-1.162
67302.000			4.646			-1.161
67401.000			4.647			-1.162
67500.000			4.646			-1.162
67601.000			4.646			-1.161
67700.000			4.645			-1.161
67800.000			4.647			-1.162
67901.000			4.647			-1.162
68000.000			4.647			-1.162
68101.000			4.646			-1.162
68202.000			4.645			-1.161
68300.000			4.645			-1.161
68400.000			4.645			-1.161
68501.000			4.645			-1.161
68600.000			4.644			-1.161
68700.000			4.644			-1.161
68801.000			4.644			-1.161
68901.000			4.644			-1.161
69002.000			4.645			-1.161
69101.000			4.644			-1.161
69200.000			4.644			-1.161
69301.000			4.643			-1.161
69400.000			4.643			-1.161
69500.000			4.644			-1.161
69601.000			4.643			-1.161
69700.000			4.643			-1.161
69801.000			4.643			-1.161
69902.000			4.644			-1.161
70000.000			4.644			-1.161
70100.000			4.642			-1.161
70201.000			4.642			-1.161
70300.000			4.643			-1.161
70400.000			4.643			-1.161
70501.000			4.642			-1.160
70601.000			4.642			-1.160
70701.000			4.641			-1.160
70801.000			4.640			-1.160
70900.000			4.642			-1.160
71000.000			4.642			-1.160
71101.000			4.640			-1.160
71200.000			4.640			-1.160
71300.000			4.640			-1.160
71402.000			4.640			-1.160
71501.000			4.640			-1.160
71600.000			4.640			-1.160
71701.000			4.640			-1.160
71800.000			4.640			-1.160
71900.000			4.640			-1.160
72001.000			4.640			-1.160
72100.000			4.640			-1.160
72202.000			4.640			-1.160
72301.000			4.640			-1.160
72401.000			4.639			-1.160
72501.000			4.640			-1.160
72600.000			4.640			-1.160
72700.000			4.640			-1.160
72801.000			4.640			-1.160
72900.000			4.639			-1.160
73000.000			4.639			-1.160
73102.000			4.639			-1.160
73201.000			4.638			-1.160
73300.000			4.638			-1.160
73401.000			4.639			-1.160
73500.000			4.638			-1.159
73600.000			4.637			-1.159
73701.000			4.637			-1.159
73800.000			4.638			-1.159
73901.000			4.637			-1.159
