# Acquired on 30/01/2024 15:05:16 
# SPIDER: Creep_-11mm_HM077x145x38AB-2
# CREEP MEASUREMENT

# time [ms]		force [N]		stiffness [N/mm]
1.000			34.251			-3.114
104.000			34.745			-3.159
205.000			34.856			-3.169
304.000			34.746			-3.159
403.000			34.542			-3.140
505.000			34.470			-3.134
604.000			34.407			-3.128
705.000			34.351			-3.123
804.000			34.302			-3.118
904.000			34.258			-3.114
1005.000			34.217			-3.111
1104.000			34.142			-3.104
1204.000			34.108			-3.101
1305.000			34.077			-3.098
1404.000			34.047			-3.095
1504.000			34.018			-3.093
1604.000			33.991			-3.090
1704.000			33.966			-3.088
1804.000			33.918			-3.083
1905.000			33.896			-3.081
2004.000			33.874			-3.079
2104.000			33.853			-3.078
2205.000			33.833			-3.076
2303.000			33.813			-3.074
2404.000			33.793			-3.072
2505.000			33.758			-3.069
2604.000			33.741			-3.067
2704.000			33.723			-3.066
2804.000			33.706			-3.064
2904.000			33.692			-3.063
3004.000			33.676			-3.061
3105.000			33.662			-3.060
3204.000			33.648			-3.059
3304.000			33.619			-3.056
3405.000			33.605			-3.055
3503.000			33.591			-3.054
3604.000			33.578			-3.053
3705.000			33.565			-3.051
3804.000			33.553			-3.050
3905.000			33.541			-3.049
4004.000			33.517			-3.047
4104.000			33.506			-3.046
4205.000			33.495			-3.045
4304.000			33.484			-3.044
4404.000			33.473			-3.043
4505.000			33.462			-3.042
4604.000			33.452			-3.041
4703.000			33.431			-3.039
4805.000			33.421			-3.038
4904.000			33.411			-3.037
5004.000			33.401			-3.036
5105.000			33.392			-3.036
5204.000			33.383			-3.035
5304.000			33.374			-3.034
5404.000			33.355			-3.032
5504.000			33.346			-3.031
5604.000			33.338			-3.031
5705.000			33.329			-3.030
5804.000			33.320			-3.029
5903.000			33.312			-3.028
6005.000			33.304			-3.028
6104.000			33.296			-3.027
6204.000			33.279			-3.025
6305.000			33.272			-3.025
6404.000			33.264			-3.024
6504.000			33.256			-3.023
6604.000			33.249			-3.023
6704.000			33.242			-3.022
6804.000			33.234			-3.021
6904.000			33.219			-3.020
7004.000			33.211			-3.019
7105.000			33.203			-3.018
7204.000			33.195			-3.018
7303.000			33.190			-3.017
7405.000			33.185			-3.017
7504.000			33.177			-3.016
7604.000			33.163			-3.015
7705.000			33.156			-3.014
7803.000			33.150			-3.014
7904.000			33.143			-3.013
8005.000			33.137			-3.012
8104.000			33.131			-3.012
8204.000			33.125			-3.011
8305.000			33.113			-3.010
8404.000			33.106			-3.010
8503.000			33.100			-3.009
8605.000			33.094			-3.009
8704.000			33.087			-3.008
8804.000			33.081			-3.007
8905.000			33.075			-3.007
9003.000			33.071			-3.006
9104.000			33.059			-3.005
9205.000			33.054			-3.005
9304.000			33.048			-3.004
9404.000			33.043			-3.004
9505.000			33.038			-3.003
9604.000			33.032			-3.003
9703.000			33.026			-3.002
9805.000			33.016			-3.001
9904.000			33.011			-3.001
10004.000			33.007			-3.001
10105.000			33.000			-3.000
10203.000			32.995			-3.000
10305.000			32.991			-2.999
10404.000			32.986			-2.999
10504.000			32.975			-2.998
10605.000			32.969			-2.997
10704.000			32.965			-2.997
10804.000			32.960			-2.996
10904.000			32.955			-2.996
11004.000			32.951			-2.996
11104.000			32.946			-2.995
11205.000			32.937			-2.994
11304.000			32.932			-2.994
11404.000			32.928			-2.993
11505.000			32.923			-2.993
11603.000			32.918			-2.993
11704.000			32.914			-2.992
11805.000			32.909			-2.992
11904.000			32.900			-2.991
12004.000			32.896			-2.991
12105.000			32.891			-2.990
12204.000			32.887			-2.990
12303.000			32.883			-2.989
12405.000			32.879			-2.989
12504.000			32.875			-2.989
12604.000			32.870			-2.988
12705.000			32.861			-2.987
12804.000			32.857			-2.987
12904.000			32.853			-2.987
13004.000			32.849			-2.986
13104.000			32.845			-2.986
13204.000			32.842			-2.986
13304.000			32.837			-2.985
13404.000			32.829			-2.984
13503.000			32.824			-2.984
13604.000			32.820			-2.984
13703.000			32.816			-2.983
13805.000			32.813			-2.983
13904.000			32.809			-2.983
14004.000			32.805			-2.982
14105.000			32.797			-2.982
14203.000			32.794			-2.981
14304.000			32.790			-2.981
14405.000			32.786			-2.981
14504.000			32.782			-2.980
14604.000			32.779			-2.980
14705.000			32.775			-2.980
14804.000			32.767			-2.979
14903.000			32.764			-2.979
15005.000			32.761			-2.978
15104.000			32.756			-2.978
15204.000			32.752			-2.977
15305.000			32.749			-2.977
15404.000			32.747			-2.977
15504.000			32.743			-2.977
15604.000			32.736			-2.976
15704.000			32.732			-2.976
15804.000			32.730			-2.975
15905.000			32.727			-2.975
16004.000			32.723			-2.975
16104.000			32.719			-2.974
16205.000			32.715			-2.974
16303.000			32.709			-2.974
16404.000			32.706			-2.973
16505.000			32.702			-2.973
16604.000			32.699			-2.973
16705.000			32.695			-2.972
16804.000			32.692			-2.972
16904.000			32.690			-2.972
17004.000			32.683			-2.971
17104.000			32.679			-2.971
17204.000			32.676			-2.971
17305.000			32.674			-2.970
17404.000			32.670			-2.970
17504.000			32.668			-2.970
17605.000			32.665			-2.970
17703.000			32.657			-2.969
17804.000			32.655			-2.969
17905.000			32.652			-2.968
18004.000			32.649			-2.968
18104.000			32.647			-2.968
18205.000			32.644			-2.968
18304.000			32.641			-2.967
18403.000			32.637			-2.967
18505.000			32.631			-2.966
18604.000			32.628			-2.966
18704.000			32.625			-2.966
18805.000			32.623			-2.966
18904.000			32.619			-2.965
19004.000			32.616			-2.965
19104.000			32.614			-2.965
19204.000			32.608			-2.964
19304.000			32.606			-2.964
19405.000			32.603			-2.964
19504.000			32.600			-2.964
19603.000			32.597			-2.963
19705.000			32.594			-2.963
19803.000			32.591			-2.963
19905.000			32.585			-2.962
20004.000			32.582			-2.962
20104.000			32.580			-2.962
20205.000			32.578			-2.962
20304.000			32.575			-2.961
20404.000			32.572			-2.961
20504.000			32.569			-2.961
20604.000			32.562			-2.960
20704.000			32.561			-2.960
20805.000			32.558			-2.960
20904.000			32.556			-2.960
21003.000			32.554			-2.959
21105.000			32.551			-2.959
21204.000			32.548			-2.959
21304.000			32.545			-2.959
21405.000			32.540			-2.958
21504.000			32.538			-2.958
21604.000			32.535			-2.958
21704.000			32.532			-2.957
21804.000			32.531			-2.957
21904.000			32.528			-2.957
22005.000			32.524			-2.957
22104.000			32.519			-2.956
22204.000			32.517			-2.956
22305.000			32.514			-2.956
22403.000			32.512			-2.956
22504.000			32.508			-2.955
22605.000			32.506			-2.955
22704.000			32.504			-2.955
22804.000			32.501			-2.955
22904.000			32.498			-2.954
23004.000			32.495			-2.954
23103.000			32.492			-2.954
23204.000			32.490			-2.954
23304.000			32.488			-2.953
23405.000			32.486			-2.953
23504.000			32.480			-2.953
23603.000			32.477			-2.952
23705.000			32.476			-2.952
23804.000			32.474			-2.952
23904.000			32.472			-2.952
24005.000			32.470			-2.952
24104.000			32.466			-2.951
24204.000			32.462			-2.951
24304.000			32.460			-2.951
24404.000			32.457			-2.951
24504.000			32.456			-2.951
24605.000			32.453			-2.950
24704.000			32.451			-2.950
24804.000			32.449			-2.950
24905.000			32.447			-2.950
25003.000			32.441			-2.949
25104.000			32.439			-2.949
25205.000			32.437			-2.949
25304.000			32.435			-2.949
25404.000			32.433			-2.948
25505.000			32.430			-2.948
25604.000			32.429			-2.948
25703.000			32.425			-2.948
25805.000			32.424			-2.948
25904.000			32.420			-2.947
26004.000			32.418			-2.947
26105.000			32.416			-2.947
26203.000			32.414			-2.947
26305.000			32.411			-2.946
26404.000			32.406			-2.946
26504.000			32.405			-2.946
26605.000			32.402			-2.946
26704.000			32.400			-2.945
26804.000			32.398			-2.945
26904.000			32.396			-2.945
27004.000			32.393			-2.945
27104.000			32.391			-2.945
27205.000			32.389			-2.944
27304.000			32.386			-2.944
27404.000			32.384			-2.944
27505.000			32.382			-2.944
27603.000			32.378			-2.943
27704.000			32.376			-2.943
27805.000			32.373			-2.943
27904.000			32.371			-2.943
28004.000			32.369			-2.943
28105.000			32.366			-2.942
28204.000			32.365			-2.942
28303.000			32.364			-2.942
28405.000			32.361			-2.942
28504.000			32.359			-2.942
28604.000			32.356			-2.941
28705.000			32.352			-2.941
28804.000			32.350			-2.941
28904.000			32.348			-2.941
29004.000			32.346			-2.941
29104.000			32.344			-2.940
29204.000			32.343			-2.940
29304.000			32.338			-2.940
29404.000			32.337			-2.940
29505.000			32.335			-2.940
29604.000			32.333			-2.939
29703.000			32.331			-2.939
29805.000			32.329			-2.939
29904.000			32.328			-2.939
30004.000			32.323			-2.938
30105.000			32.320			-2.938
30204.000			32.319			-2.938
30304.000			32.318			-2.938
30405.000			32.316			-2.938
30504.000			32.314			-2.938
30604.000			32.312			-2.937
30705.000			32.309			-2.937
30804.000			32.306			-2.937
30903.000			32.304			-2.937
31005.000			32.304			-2.937
31104.000			32.302			-2.937
31204.000			32.299			-2.936
31305.000			32.298			-2.936
31404.000			32.296			-2.936
31504.000			32.292			-2.936
31604.000			32.289			-2.935
31704.000			32.287			-2.935
31804.000			32.285			-2.935
31905.000			32.284			-2.935
32004.000			32.283			-2.935
32104.000			32.281			-2.935
32205.000			32.277			-2.934
32303.000			32.276			-2.934
32404.000			32.275			-2.934
32505.000			32.272			-2.934
32604.000			32.270			-2.934
32705.000			32.268			-2.933
32804.000			32.266			-2.933
32904.000			32.264			-2.933
33004.000			32.261			-2.933
33104.000			32.259			-2.933
33204.000			32.258			-2.933
33305.000			32.256			-2.932
33404.000			32.255			-2.932
33503.000			32.253			-2.932
33605.000			32.250			-2.932
33704.000			32.247			-2.932
33804.000			32.247			-2.932
33905.000			32.245			-2.931
34004.000			32.243			-2.931
34104.000			32.241			-2.931
34204.000			32.239			-2.931
34304.000			32.238			-2.931
34404.000			32.234			-2.930
34505.000			32.233			-2.930
34604.000			32.232			-2.930
34704.000			32.230			-2.930
34805.000			32.228			-2.930
34903.000			32.227			-2.930
35004.000			32.225			-2.930
35105.000			32.221			-2.929
35204.000			32.220			-2.929
35304.000			32.217			-2.929
35404.000			32.216			-2.929
35504.000			32.215			-2.929
35604.000			32.213			-2.928
35704.000			32.211			-2.928
35804.000			32.209			-2.928
35905.000			32.207			-2.928
36004.000			32.205			-2.928
36103.000			32.203			-2.928
36205.000			32.201			-2.927
36304.000			32.200			-2.927
36404.000			32.199			-2.927
36505.000			32.196			-2.927
36604.000			32.194			-2.927
36704.000			32.192			-2.927
36804.000			32.191			-2.926
36904.000			32.189			-2.926
37004.000			32.188			-2.926
37105.000			32.187			-2.926
37204.000			32.185			-2.926
37304.000			32.181			-2.926
37405.000			32.178			-2.925
37503.000			32.178			-2.925
37604.000			32.177			-2.925
37705.000			32.175			-2.925
37804.000			32.173			-2.925
37904.000			32.172			-2.925
38004.000			32.168			-2.924
38104.000			32.167			-2.924
38203.000			32.165			-2.924
38305.000			32.164			-2.924
38404.000			32.163			-2.924
38504.000			32.161			-2.924
38605.000			32.160			-2.924
38703.000			32.156			-2.923
38804.000			32.155			-2.923
38905.000			32.154			-2.923
39004.000			32.152			-2.923
39105.000			32.151			-2.923
39204.000			32.149			-2.923
39304.000			32.148			-2.923
39404.000			32.144			-2.922
39504.000			32.144			-2.922
39604.000			32.143			-2.922
39705.000			32.140			-2.922
39804.000			32.138			-2.922
39904.000			32.136			-2.921
40005.000			32.136			-2.921
40103.000			32.135			-2.921
40204.000			32.131			-2.921
40305.000			32.130			-2.921
40404.000			32.128			-2.921
40504.000			32.126			-2.921
40605.000			32.124			-2.920
40704.000			32.124			-2.920
40803.000			32.124			-2.920
40905.000			32.118			-2.920
41004.000			32.118			-2.920
41104.000			32.117			-2.920
41205.000			32.115			-2.920
41304.000			32.114			-2.919
41404.000			32.113			-2.919
41505.000			32.111			-2.919
41604.000			32.109			-2.919
41704.000			32.107			-2.919
41805.000			32.105			-2.919
41904.000			32.104			-2.919
42003.000			32.102			-2.918
42105.000			32.101			-2.918
42204.000			32.099			-2.918
42305.000			32.097			-2.918
42404.000			32.095			-2.918
42504.000			32.094			-2.918
42605.000			32.093			-2.918
42703.000			32.091			-2.917
42804.000			32.090			-2.917
42905.000			32.089			-2.917
43004.000			32.088			-2.917
43104.000			32.085			-2.917
43205.000			32.083			-2.917
43304.000			32.082			-2.917
43403.000			32.081			-2.916
43505.000			32.080			-2.916
43604.000			32.078			-2.916
43704.000			32.077			-2.916
43805.000			32.074			-2.916
43903.000			32.073			-2.916
44004.000			32.071			-2.916
44105.000			32.070			-2.915
44204.000			32.069			-2.915
44304.000			32.068			-2.915
44405.000			32.067			-2.915
44504.000			32.065			-2.915
44603.000			32.063			-2.915
44705.000			32.062			-2.915
44804.000			32.061			-2.915
44904.000			32.059			-2.914
45005.000			32.057			-2.914
45104.000			32.055			-2.914
45204.000			32.053			-2.914
45303.000			32.051			-2.914
45404.000			32.050			-2.914
45505.000			32.048			-2.913
45604.000			32.047			-2.913
45704.000			32.047			-2.913
45805.000			32.046			-2.913
45904.000			32.043			-2.913
46003.000			32.042			-2.913
46105.000			32.041			-2.913
46204.000			32.039			-2.913
46304.000			32.038			-2.913
46405.000			32.037			-2.912
46504.000			32.035			-2.912
46604.000			32.034			-2.912
46704.000			32.032			-2.912
46804.000			32.031			-2.912
46904.000			32.030			-2.912
47005.000			32.028			-2.912
47104.000			32.026			-2.911
47203.000			32.025			-2.911
47305.000			32.023			-2.911
47404.000			32.021			-2.911
47504.000			32.020			-2.911
47605.000			32.020			-2.911
47704.000			32.018			-2.911
47804.000			32.016			-2.911
47904.000			32.015			-2.910
48004.000			32.014			-2.910
48104.000			32.012			-2.910
48205.000			32.011			-2.910
48304.000			32.009			-2.910
48404.000			32.008			-2.910
48505.000			32.007			-2.910
48603.000			32.006			-2.910
48705.000			32.005			-2.910
48804.000			32.002			-2.909
48904.000			32.001			-2.909
49005.000			32.000			-2.909
49104.000			31.998			-2.909
49204.000			31.996			-2.909
49304.000			31.995			-2.909
49404.000			31.994			-2.909
49504.000			31.993			-2.908
49605.000			31.991			-2.908
49704.000			31.990			-2.908
49804.000			31.987			-2.908
49905.000			31.987			-2.908
50003.000			31.986			-2.908
50104.000			31.984			-2.908
50205.000			31.983			-2.908
50304.000			31.983			-2.908
50404.000			31.981			-2.907
50504.000			31.980			-2.907
50604.000			31.979			-2.907
50703.000			31.977			-2.907
50805.000			31.976			-2.907
50904.000			31.975			-2.907
51004.000			31.972			-2.907
51105.000			31.970			-2.906
51204.000			31.969			-2.906
51304.000			31.969			-2.906
51404.000			31.968			-2.906
51504.000			31.967			-2.906
51604.000			31.966			-2.906
51704.000			31.962			-2.906
51804.000			31.961			-2.906
51905.000			31.961			-2.906
52004.000			31.960			-2.905
52103.000			31.959			-2.905
52205.000			31.958			-2.905
52304.000			31.956			-2.905
52404.000			31.955			-2.905
52505.000			31.951			-2.905
52604.000			31.952			-2.905
52704.000			31.950			-2.905
52804.000			31.951			-2.905
52904.000			31.949			-2.904
53004.000			31.948			-2.904
53105.000			31.946			-2.904
53204.000			31.943			-2.904
53303.000			31.942			-2.904
53405.000			31.942			-2.904
53504.000			31.940			-2.904
53604.000			31.940			-2.904
53705.000			31.939			-2.904
53804.000			31.938			-2.903
53904.000			31.934			-2.903
54004.000			31.933			-2.903
54104.000			31.932			-2.903
54204.000			31.931			-2.903
54305.000			31.931			-2.903
54404.000			31.930			-2.903
54504.000			31.929			-2.903
54605.000			31.926			-2.902
54703.000			31.926			-2.902
54804.000			31.925			-2.902
54905.000			31.924			-2.902
55004.000			31.923			-2.902
55105.000			31.922			-2.902
55204.000			31.919			-2.902
55304.000			31.918			-2.902
55404.000			31.917			-2.902
55504.000			31.916			-2.901
55604.000			31.915			-2.901
55705.000			31.914			-2.901
55804.000			31.912			-2.901
55904.000			31.910			-2.901
56005.000			31.910			-2.901
56103.000			31.908			-2.901
56204.000			31.906			-2.901
56305.000			31.905			-2.900
56404.000			31.904			-2.900
56504.000			31.904			-2.900
56605.000			31.904			-2.900
56704.000			31.903			-2.900
56803.000			31.899			-2.900
56905.000			31.899			-2.900
57004.000			31.898			-2.900
57104.000			31.897			-2.900
57205.000			31.895			-2.900
57304.000			31.894			-2.899
57404.000			31.893			-2.899
57504.000			31.891			-2.899
57604.000			31.891			-2.899
57704.000			31.889			-2.899
57805.000			31.887			-2.899
57904.000			31.887			-2.899
58004.000			31.886			-2.899
58105.000			31.885			-2.899
58203.000			31.883			-2.898
58305.000			31.882			-2.898
58404.000			31.880			-2.898
58504.000			31.879			-2.898
58605.000			31.879			-2.898
58704.000			31.878			-2.898
58804.000			31.876			-2.898
58904.000			31.874			-2.898
59004.000			31.873			-2.898
59104.000			31.871			-2.897
59205.000			31.870			-2.897
59304.000			31.871			-2.897
59404.000			31.870			-2.897
59505.000			31.868			-2.897
59603.000			31.868			-2.897
59704.000			31.865			-2.897
59805.000			31.865			-2.897
59904.000			31.863			-2.897
60004.000			31.861			-2.896
60105.000			31.861			-2.896
60204.000			31.860			-2.896
60303.000			31.859			-2.896
60405.000			31.857			-2.896
60504.000			31.857			-2.896
60604.000			31.856			-2.896
60705.000			31.854			-2.896
60804.000			31.854			-2.896
60904.000			31.852			-2.896
61004.000			31.851			-2.896
61104.000			31.848			-2.895
61204.000			31.847			-2.895
61304.000			31.847			-2.895
61404.000			31.847			-2.895
61503.000			31.846			-2.895
61604.000			31.845			-2.895
61703.000			31.844			-2.895
61805.000			31.842			-2.895
61904.000			31.842			-2.895
62004.000			31.841			-2.895
62105.000			31.838			-2.894
62203.000			31.839			-2.894
62304.000			31.838			-2.894
62405.000			31.837			-2.894
62504.000			31.835			-2.894
62604.000			31.833			-2.894
62705.000			31.832			-2.894
62804.000			31.831			-2.894
62903.000			31.830			-2.894
63005.000			31.829			-2.894
63104.000			31.829			-2.894
63204.000			31.827			-2.893
63305.000			31.826			-2.893
63404.000			31.823			-2.893
63504.000			31.823			-2.893
63604.000			31.823			-2.893
63704.000			31.822			-2.893
63804.000			31.821			-2.893
63905.000			31.820			-2.893
64004.000			31.819			-2.893
64104.000			31.817			-2.892
64205.000			31.817			-2.892
64303.000			31.816			-2.892
64404.000			31.815			-2.892
64505.000			31.813			-2.892
64604.000			31.811			-2.892
64705.000			31.810			-2.892
64804.000			31.810			-2.892
64904.000			31.810			-2.892
65004.000			31.808			-2.892
65104.000			31.806			-2.891
65204.000			31.805			-2.891
65305.000			31.805			-2.891
65404.000			31.803			-2.891
65503.000			31.802			-2.891
65605.000			31.801			-2.891
65704.000			31.800			-2.891
65804.000			31.800			-2.891
65905.000			31.799			-2.891
66004.000			31.798			-2.891
66104.000			31.798			-2.891
66205.000			31.796			-2.891
66304.000			31.794			-2.890
66403.000			31.793			-2.890
66505.000			31.792			-2.890
66604.000			31.791			-2.890
66704.000			31.791			-2.890
66805.000			31.789			-2.890
66904.000			31.788			-2.890
67004.000			31.787			-2.890
67104.000			31.786			-2.890
67204.000			31.785			-2.890
67304.000			31.783			-2.889
67405.000			31.783			-2.889
67504.000			31.782			-2.889
67604.000			31.779			-2.889
67705.000			31.779			-2.889
67803.000			31.778			-2.889
67905.000			31.778			-2.889
68004.000			31.777			-2.889
68104.000			31.776			-2.889
68205.000			31.775			-2.889
68304.000			31.773			-2.888
68404.000			31.771			-2.888
68504.000			31.771			-2.888
68604.000			31.772			-2.888
68704.000			31.771			-2.888
68805.000			31.770			-2.888
68904.000			31.769			-2.888
69004.000			31.767			-2.888
69105.000			31.766			-2.888
69203.000			31.765			-2.888
69304.000			31.764			-2.888
69405.000			31.763			-2.888
69504.000			31.762			-2.887
69604.000			31.762			-2.887
69705.000			31.762			-2.887
69804.000			31.759			-2.887
69903.000			31.758			-2.887
70005.000			31.757			-2.887
70104.000			31.756			-2.887
70204.000			31.755			-2.887
70305.000			31.754			-2.887
70404.000			31.754			-2.887
70504.000			31.753			-2.887
70604.000			31.753			-2.887
70704.000			31.751			-2.886
70804.000			31.750			-2.886
70904.000			31.749			-2.886
71004.000			31.747			-2.886
71105.000			31.746			-2.886
71204.000			31.746			-2.886
