# Acquired on 21/12/2023 11:51:41 
# SPIDER: Creep_-7mm_07714532B-1
# CREEP MEASUREMENT

# time [ms]		force [N]		stiffness [N/mm]
1.000			26.542			-3.792
101.000			27.763			-3.966
200.000			28.194			-4.028
300.000			28.151			-4.022
401.000			28.029			-4.004
500.000			27.935			-3.991
601.000			27.791			-3.970
702.000			27.734			-3.962
800.000			27.682			-3.955
900.000			27.635			-3.948
1001.000			27.592			-3.942
1100.000			27.553			-3.936
1200.000			27.517			-3.931
1302.000			27.451			-3.922
1401.000			27.420			-3.917
1500.000			27.393			-3.913
1601.000			27.368			-3.910
1700.000			27.343			-3.906
1800.000			27.319			-3.903
1901.000			27.296			-3.899
2000.000			27.275			-3.896
2101.000			27.234			-3.891
2202.000			27.216			-3.888
2300.000			27.198			-3.885
2400.000			27.180			-3.883
2501.000			27.163			-3.880
2600.000			27.147			-3.878
2700.000			27.130			-3.876
2802.000			27.101			-3.872
2901.000			27.086			-3.869
3001.000			27.072			-3.867
3100.000			27.059			-3.866
3200.000			27.046			-3.864
3301.000			27.033			-3.862
3400.000			27.021			-3.860
3500.000			26.997			-3.857
3602.000			26.985			-3.855
3701.000			26.974			-3.853
3800.000			26.963			-3.852
3901.000			26.953			-3.850
4000.000			26.943			-3.849
4100.000			26.933			-3.848
4201.000			26.922			-3.846
4300.000			26.902			-3.843
4401.000			26.892			-3.842
4502.000			26.883			-3.840
4600.000			26.875			-3.839
4700.000			26.866			-3.838
4801.000			26.857			-3.837
4900.000			26.849			-3.836
5000.000			26.834			-3.833
5102.000			26.825			-3.832
5201.000			26.816			-3.831
5301.000			26.808			-3.830
5401.000			26.800			-3.829
5500.000			26.792			-3.827
5600.000			26.785			-3.826
5701.000			26.772			-3.825
5800.000			26.764			-3.823
5902.000			26.757			-3.822
6001.000			26.751			-3.822
6100.000			26.744			-3.821
6201.000			26.737			-3.820
6300.000			26.731			-3.819
6400.000			26.724			-3.818
6501.000			26.710			-3.816
6600.000			26.705			-3.815
6701.000			26.699			-3.814
6802.000			26.693			-3.813
6900.000			26.687			-3.812
7000.000			26.681			-3.812
7101.000			26.675			-3.811
7200.000			26.664			-3.809
7300.000			26.658			-3.808
7401.000			26.652			-3.807
7501.000			26.648			-3.807
7601.000			26.643			-3.806
7701.000			26.637			-3.805
7800.000			26.632			-3.805
7900.000			26.621			-3.803
8001.000			26.616			-3.802
8100.000			26.611			-3.802
8200.000			26.607			-3.801
8302.000			26.602			-3.800
8401.000			26.597			-3.800
8500.000			26.591			-3.799
8601.000			26.586			-3.798
8700.000			26.578			-3.797
8800.000			26.574			-3.796
8901.000			26.569			-3.796
9000.000			26.563			-3.795
9102.000			26.558			-3.794
9201.000			26.555			-3.794
9300.000			26.551			-3.793
9401.000			26.542			-3.792
9500.000			26.537			-3.791
9600.000			26.534			-3.791
9701.000			26.530			-3.790
9801.000			26.525			-3.789
9901.000			26.522			-3.789
10001.000			26.516			-3.788
10100.000			26.509			-3.787
10200.000			26.505			-3.786
10301.000			26.502			-3.786
10400.000			26.497			-3.785
10500.000			26.493			-3.785
10602.000			26.489			-3.784
10701.000			26.485			-3.784
10800.000			26.482			-3.783
10901.000			26.474			-3.782
11000.000			26.470			-3.781
11100.000			26.467			-3.781
11201.000			26.463			-3.780
11300.000			26.460			-3.780
11401.000			26.457			-3.780
11502.000			26.453			-3.779
11600.000			26.447			-3.778
11700.000			26.444			-3.778
11801.000			26.440			-3.777
11900.000			26.437			-3.777
12000.000			26.433			-3.776
12101.000			26.430			-3.776
12201.000			26.426			-3.775
12302.000			26.420			-3.774
12400.000			26.418			-3.774
12500.000			26.414			-3.773
12601.000			26.411			-3.773
12700.000			26.408			-3.773
12800.000			26.404			-3.772
12901.000			26.400			-3.771
13001.000			26.396			-3.771
13101.000			26.392			-3.770
13201.000			26.389			-3.770
13300.000			26.386			-3.769
13400.000			26.382			-3.769
13501.000			26.379			-3.768
13600.000			26.376			-3.768
13700.000			26.374			-3.768
13802.000			26.369			-3.767
13901.000			26.367			-3.767
14000.000			26.363			-3.766
14101.000			26.360			-3.766
14200.000			26.357			-3.765
14300.000			26.354			-3.765
14401.000			26.352			-3.765
14500.000			26.349			-3.764
14601.000			26.344			-3.763
14702.000			26.341			-3.763
14801.000			26.338			-3.763
14900.000			26.335			-3.762
15001.000			26.332			-3.762
15100.000			26.330			-3.761
15200.000			26.327			-3.761
15301.000			26.321			-3.760
15401.000			26.320			-3.760
15502.000			26.317			-3.760
15600.000			26.314			-3.759
15700.000			26.311			-3.759
15801.000			26.308			-3.758
15900.000			26.306			-3.758
16000.000			26.301			-3.757
16101.000			26.298			-3.757
16201.000			26.295			-3.756
16301.000			26.294			-3.756
16401.000			26.291			-3.756
16500.000			26.289			-3.756
16600.000			26.288			-3.755
16701.000			26.286			-3.755
16800.000			26.279			-3.754
16900.000			26.277			-3.754
17001.000			26.275			-3.754
17101.000			26.273			-3.753
17201.000			26.271			-3.753
17301.000			26.268			-3.753
17400.000			26.266			-3.752
17500.000			26.261			-3.752
17601.000			26.258			-3.751
17700.000			26.258			-3.751
17800.000			26.256			-3.751
17902.000			26.253			-3.750
18001.000			26.251			-3.750
18100.000			26.247			-3.750
18201.000			26.242			-3.749
18300.000			26.241			-3.749
18400.000			26.239			-3.748
18501.000			26.236			-3.748
18600.000			26.234			-3.748
18702.000			26.232			-3.747
18801.000			26.230			-3.747
18900.000			26.228			-3.747
19001.000			26.223			-3.746
19100.000			26.222			-3.746
19200.000			26.220			-3.746
19301.000			26.217			-3.745
19400.000			26.216			-3.745
19501.000			26.214			-3.745
19602.000			26.211			-3.744
19700.000			26.207			-3.744
19800.000			26.205			-3.744
19901.000			26.203			-3.743
20000.000			26.202			-3.743
20100.000			26.200			-3.743
20201.000			26.197			-3.742
20301.000			26.194			-3.742
20401.000			26.191			-3.742
20501.000			26.189			-3.741
20600.000			26.187			-3.741
20700.000			26.186			-3.741
20801.000			26.184			-3.741
20900.000			26.182			-3.740
21000.000			26.180			-3.740
21102.000			26.179			-3.740
21201.000			26.175			-3.739
21300.000			26.173			-3.739
21401.000			26.171			-3.739
21500.000			26.168			-3.738
21600.000			26.166			-3.738
21701.000			26.164			-3.738
21801.000			26.163			-3.738
21902.000			26.160			-3.737
22001.000			26.158			-3.737
22100.000			26.155			-3.736
22201.000			26.154			-3.736
22300.000			26.152			-3.736
22400.000			26.151			-3.736
22501.000			26.150			-3.736
22601.000			26.146			-3.735
22701.000			26.144			-3.735
22801.000			26.142			-3.735
22900.000			26.139			-3.734
23000.000			26.137			-3.734
23101.000			26.136			-3.734
23200.000			26.135			-3.734
23300.000			26.133			-3.733
23402.000			26.129			-3.733
23501.000			26.127			-3.732
23600.000			26.126			-3.732
23701.000			26.126			-3.732
23800.000			26.124			-3.732
23900.000			26.121			-3.732
24001.000			26.120			-3.731
24100.000			26.116			-3.731
24201.000			26.115			-3.731
24302.000			26.113			-3.730
24400.000			26.111			-3.730
24500.000			26.110			-3.730
24601.000			26.108			-3.730
24700.000			26.106			-3.729
24800.000			26.104			-3.729
24901.000			26.102			-3.729
25001.000			26.100			-3.729
25102.000			26.099			-3.728
25200.000			26.098			-3.728
25300.000			26.095			-3.728
25401.000			26.093			-3.728
25500.000			26.092			-3.727
25600.000			26.090			-3.727
25701.000			26.088			-3.727
25801.000			26.087			-3.727
25901.000			26.084			-3.726
26001.000			26.082			-3.726
26100.000			26.081			-3.726
26200.000			26.080			-3.726
26301.000			26.078			-3.725
26400.000			26.076			-3.725
26500.000			26.074			-3.725
26602.000			26.072			-3.725
26701.000			26.071			-3.724
26800.000			26.070			-3.724
26901.000			26.068			-3.724
27000.000			26.067			-3.724
27100.000			26.063			-3.723
27201.000			26.062			-3.723
27301.000			26.061			-3.723
27401.000			26.060			-3.723
27501.000			26.058			-3.723
27600.000			26.056			-3.722
27700.000			26.056			-3.722
27801.000			26.053			-3.722
27900.000			26.051			-3.722
28000.000			26.050			-3.721
28102.000			26.049			-3.721
28201.000			26.047			-3.721
28300.000			26.045			-3.721
28400.000			26.044			-3.721
28500.000			26.041			-3.720
28601.000			26.041			-3.720
28700.000			26.039			-3.720
28800.000			26.037			-3.720
28902.000			26.036			-3.719
29001.000			26.036			-3.719
29100.000			26.034			-3.719
29201.000			26.031			-3.719
29300.000			26.029			-3.718
29400.000			26.028			-3.718
29501.000			26.027			-3.718
29600.000			26.025			-3.718
29701.000			26.023			-3.718
29802.000			26.022			-3.717
29900.000			26.020			-3.717
30000.000			26.018			-3.717
30101.000			26.017			-3.717
30200.000			26.017			-3.717
30300.000			26.017			-3.717
30401.000			26.015			-3.716
30501.000			26.012			-3.716
30601.000			26.011			-3.716
30701.000			26.009			-3.716
30800.000			26.007			-3.715
30900.000			26.005			-3.715
31001.000			26.004			-3.715
31100.000			26.003			-3.715
31200.000			26.002			-3.715
31302.000			26.000			-3.714
31401.000			25.999			-3.714
31500.000			25.998			-3.714
31600.000			25.998			-3.714
31700.000			25.996			-3.714
31801.000			25.994			-3.713
31900.000			25.993			-3.713
32000.000			25.991			-3.713
32102.000			25.989			-3.713
32201.000			25.988			-3.713
32300.000			25.986			-3.712
32401.000			25.985			-3.712
32500.000			25.985			-3.712
32600.000			25.983			-3.712
32701.000			25.981			-3.712
32800.000			25.980			-3.711
32901.000			25.977			-3.711
33002.000			25.976			-3.711
33100.000			25.975			-3.711
33200.000			25.974			-3.711
33301.000			25.972			-3.710
33400.000			25.972			-3.710
33500.000			25.970			-3.710
33601.000			25.969			-3.710
33701.000			25.966			-3.709
33801.000			25.965			-3.709
33901.000			25.964			-3.709
34000.000			25.964			-3.709
34100.000			25.962			-3.709
34201.000			25.960			-3.709
34300.000			25.959			-3.708
34400.000			25.957			-3.708
34502.000			25.957			-3.708
34601.000			25.955			-3.708
34700.000			25.955			-3.708
34800.000			25.954			-3.708
34900.000			25.953			-3.708
35001.000			25.951			-3.707
35100.000			25.949			-3.707
35200.000			25.948			-3.707
35302.000			25.946			-3.707
35401.000			25.946			-3.707
35500.000			25.945			-3.706
35601.000			25.943			-3.706
35700.000			25.942			-3.706
35800.000			25.941			-3.706
35901.000			25.939			-3.706
36000.000			25.938			-3.705
36100.000			25.937			-3.705
36202.000			25.936			-3.705
36301.000			25.934			-3.705
36400.000			25.933			-3.705
36501.000			25.931			-3.704
36600.000			25.928			-3.704
36700.000			25.928			-3.704
36801.000			25.926			-3.704
36900.000			25.925			-3.704
37001.000			25.926			-3.704
37102.000			25.924			-3.703
37200.000			25.924			-3.703
37300.000			25.920			-3.703
37401.000			25.920			-3.703
37500.000			25.919			-3.703
37600.000			25.918			-3.703
37701.000			25.917			-3.702
37801.000			25.916			-3.702
37902.000			25.915			-3.702
38000.000			25.914			-3.702
38100.000			25.912			-3.702
38201.000			25.912			-3.702
38300.000			25.909			-3.701
38400.000			25.908			-3.701
38501.000			25.907			-3.701
38601.000			25.906			-3.701
38701.000			25.905			-3.701
38801.000			25.904			-3.701
38900.000			25.903			-3.700
39000.000			25.901			-3.700
39101.000			25.900			-3.700
39200.000			25.900			-3.700
39300.000			25.899			-3.700
39402.000			25.897			-3.700
39501.000			25.896			-3.699
39601.000			25.895			-3.699
39701.000			25.895			-3.699
39800.000			25.892			-3.699
39900.000			25.890			-3.699
40001.000			25.890			-3.699
40100.000			25.890			-3.699
40200.000			25.889			-3.698
40302.000			25.886			-3.698
40401.000			25.886			-3.698
40500.000			25.885			-3.698
40601.000			25.883			-3.698
40700.000			25.882			-3.697
40800.000			25.882			-3.697
40901.000			25.881			-3.697
41000.000			25.879			-3.697
41102.000			25.878			-3.697
41201.000			25.877			-3.697
41300.000			25.876			-3.697
41401.000			25.875			-3.696
41500.000			25.874			-3.696
41600.000			25.874			-3.696
41701.000			25.871			-3.696
41800.000			25.870			-3.696
41901.000			25.869			-3.696
42002.000			25.869			-3.696
42100.000			25.867			-3.695
42200.000			25.866			-3.695
42301.000			25.865			-3.695
42400.000			25.864			-3.695
42500.000			25.864			-3.695
42601.000			25.862			-3.695
42701.000			25.860			-3.694
42801.000			25.858			-3.694
42901.000			25.857			-3.694
43000.000			25.857			-3.694
43100.000			25.856			-3.694
43201.000			25.855			-3.694
43300.000			25.853			-3.693
43400.000			25.852			-3.693
43502.000			25.853			-3.693
43601.000			25.852			-3.693
43700.000			25.850			-3.693
43801.000			25.849			-3.693
43900.000			25.848			-3.693
44000.000			25.847			-3.692
44101.000			25.845			-3.692
44200.000			25.843			-3.692
44302.000			25.843			-3.692
44401.000			25.844			-3.692
44500.000			25.842			-3.692
44601.000			25.841			-3.692
44700.000			25.841			-3.692
44800.000			25.840			-3.691
44901.000			25.839			-3.691
45000.000			25.837			-3.691
45101.000			25.836			-3.691
45202.000			25.837			-3.691
45301.000			25.836			-3.691
45400.000			25.833			-3.690
45501.000			25.833			-3.690
45600.000			25.832			-3.690
45700.000			25.830			-3.690
45801.000			25.830			-3.690
45901.000			25.830			-3.690
46001.000			25.828			-3.690
46101.000			25.821			-3.689
46200.000			25.820			-3.689
46300.000			25.819			-3.688
46401.000			25.818			-3.688
46500.000			25.817			-3.688
46600.000			25.817			-3.688
46702.000			25.818			-3.688
46801.000			25.818			-3.688
46901.000			25.816			-3.688
47001.000			25.816			-3.688
47100.000			25.815			-3.688
47200.000			25.813			-3.688
47301.000			25.813			-3.688
47400.000			25.813			-3.688
47500.000			25.811			-3.687
47602.000			25.810			-3.687
47701.000			25.809			-3.687
47801.000			25.808			-3.687
47900.000			25.808			-3.687
48000.000			25.807			-3.687
48101.000			25.807			-3.687
48200.000			25.806			-3.687
48300.000			25.805			-3.686
48402.000			25.802			-3.686
48501.000			25.802			-3.686
48600.000			25.801			-3.686
48701.000			25.799			-3.686
48800.000			25.798			-3.685
48900.000			25.798			-3.685
49001.000			25.797			-3.685
49100.000			25.796			-3.685
49201.000			25.795			-3.685
49302.000			25.794			-3.685
49401.000			25.793			-3.685
49500.000			25.792			-3.685
49601.000			25.791			-3.684
49700.000			25.791			-3.684
49800.000			25.789			-3.684
49901.000			25.788			-3.684
50000.000			25.788			-3.684
50101.000			25.787			-3.684
50202.000			25.787			-3.684
50300.000			25.785			-3.684
50400.000			25.784			-3.683
50501.000			25.784			-3.683
50600.000			25.782			-3.683
50700.000			25.781			-3.683
50800.000			25.780			-3.683
50901.000			25.780			-3.683
51002.000			25.779			-3.683
51100.000			25.778			-3.683
51200.000			25.777			-3.682
51301.000			25.776			-3.682
51400.000			25.776			-3.682
51500.000			25.775			-3.682
51601.000			25.773			-3.682
51701.000			25.773			-3.682
51801.000			25.772			-3.682
51901.000			25.771			-3.682
52000.000			25.770			-3.681
52100.000			25.769			-3.681
52201.000			25.769			-3.681
52300.000			25.768			-3.681
52400.000			25.767			-3.681
52502.000			25.767			-3.681
52601.000			25.766			-3.681
52700.000			25.765			-3.681
52801.000			25.763			-3.680
52900.000			25.762			-3.680
53000.000			25.762			-3.680
53101.000			25.762			-3.680
53200.000			25.760			-3.680
53301.000			25.759			-3.680
53402.000			25.759			-3.680
53501.000			25.757			-3.680
53600.000			25.757			-3.680
53701.000			25.757			-3.680
53800.000			25.757			-3.680
53900.000			25.755			-3.679
54000.000			25.753			-3.679
54100.000			25.754			-3.679
54202.000			25.751			-3.679
54301.000			25.750			-3.679
54400.000			25.750			-3.679
54501.000			25.749			-3.678
54600.000			25.750			-3.679
54700.000			25.748			-3.678
54801.000			25.747			-3.678
54900.000			25.747			-3.678
55001.000			25.745			-3.678
55102.000			25.744			-3.678
55200.000			25.743			-3.678
55300.000			25.743			-3.678
55401.000			25.741			-3.677
55500.000			25.740			-3.677
55600.000			25.741			-3.677
55701.000			25.739			-3.677
55801.000			25.738			-3.677
55901.000			25.738			-3.677
56001.000			25.737			-3.677
56100.000			25.737			-3.677
56200.000			25.736			-3.677
56301.000			25.735			-3.676
56400.000			25.733			-3.676
56500.000			25.733			-3.676
56602.000			25.732			-3.676
56701.000			25.732			-3.676
56800.000			25.731			-3.676
56901.000			25.730			-3.676
57000.000			25.729			-3.676
57100.000			25.729			-3.676
57200.000			25.728			-3.675
57300.000			25.727			-3.675
57402.000			25.726			-3.675
57501.000			25.726			-3.675
57600.000			25.725			-3.675
57701.000			25.724			-3.675
57800.000			25.723			-3.675
57900.000			25.723			-3.675
58001.000			25.722			-3.675
58100.000			25.722			-3.675
58201.000			25.720			-3.674
58302.000			25.720			-3.674
58401.000			25.719			-3.674
58500.000			25.719			-3.674
58601.000			25.717			-3.674
58700.000			25.716			-3.674
58800.000			25.714			-3.673
58901.000			25.714			-3.673
59000.000			25.714			-3.673
59101.000			25.714			-3.673
59202.000			25.712			-3.673
59300.000			25.711			-3.673
59400.000			25.711			-3.673
59501.000			25.711			-3.673
59600.000			25.710			-3.673
59700.000			25.709			-3.673
59801.000			25.708			-3.673
59901.000			25.706			-3.672
60001.000			25.706			-3.672
60101.000			25.706			-3.672
60200.000			25.705			-3.672
60300.000			25.705			-3.672
60400.000			25.704			-3.672
60500.000			25.703			-3.672
60601.000			25.703			-3.672
60701.000			25.702			-3.672
60801.000			25.700			-3.671
60901.000			25.700			-3.671
61000.000			25.699			-3.671
61100.000			25.699			-3.671
61201.000			25.698			-3.671
61300.000			25.698			-3.671
61400.000			25.696			-3.671
61502.000			25.695			-3.671
61601.000			25.694			-3.671
61700.000			25.693			-3.670
61801.000			25.693			-3.670
61900.000			25.693			-3.670
62000.000			25.693			-3.670
62101.000			25.691			-3.670
62200.000			25.690			-3.670
62301.000			25.690			-3.670
62402.000			25.689			-3.670
62501.000			25.690			-3.670
62600.000			25.689			-3.670
62701.000			25.687			-3.670
62800.000			25.685			-3.669
62900.000			25.685			-3.669
63001.000			25.684			-3.669
63100.000			25.685			-3.669
63201.000			25.683			-3.669
63302.000			25.683			-3.669
63400.000			25.683			-3.669
63500.000			25.681			-3.669
63600.000			25.680			-3.669
63700.000			25.680			-3.669
63801.000			25.679			-3.668
63900.000			25.679			-3.668
64001.000			25.677			-3.668
64102.000			25.676			-3.668
64200.000			25.676			-3.668
64300.000			25.676			-3.668
64401.000			25.675			-3.668
64500.000			25.674			-3.668
64600.000			25.674			-3.668
64701.000			25.673			-3.668
64801.000			25.673			-3.668
64901.000			25.673			-3.668
65001.000			25.672			-3.667
65100.000			25.671			-3.667
65200.000			25.669			-3.667
65301.000			25.668			-3.667
65400.000			25.668			-3.667
65500.000			25.666			-3.667
65602.000			25.666			-3.667
65701.000			25.666			-3.667
65800.000			25.666			-3.667
65901.000			25.665			-3.666
66000.000			25.664			-3.666
66100.000			25.663			-3.666
66201.000			25.663			-3.666
66300.000			25.662			-3.666
66400.000			25.661			-3.666
66502.000			25.661			-3.666
66601.000			25.660			-3.666
66700.000			25.659			-3.666
66800.000			25.659			-3.666
66900.000			25.659			-3.666
67001.000			25.658			-3.665
67100.000			25.658			-3.665
67200.000			25.656			-3.665
67302.000			25.655			-3.665
67401.000			25.655			-3.665
67500.000			25.653			-3.665
67601.000			25.653			-3.665
67700.000			25.652			-3.665
67800.000			25.652			-3.665
67901.000			25.651			-3.664
68000.000			25.651			-3.664
68100.000			25.650			-3.664
68202.000			25.649			-3.664
68301.000			25.649			-3.664
68400.000			25.648			-3.664
68501.000			25.647			-3.664
68600.000			25.646			-3.664
68700.000			25.646			-3.664
68801.000			25.646			-3.664
68900.000			25.644			-3.663
69001.000			25.644			-3.663
69102.000			25.643			-3.663
69200.000			25.643			-3.663
69300.000			25.643			-3.663
69401.000			25.642			-3.663
69500.000			25.641			-3.663
69600.000			25.639			-3.663
69701.000			25.638			-3.663
69801.000			25.638			-3.663
69902.000			25.638			-3.663
70001.000			25.638			-3.663
70100.000			25.638			-3.663
70201.000			25.637			-3.662
70300.000			25.636			-3.662
70400.000			25.635			-3.662
70501.000			25.635			-3.662
70601.000			25.634			-3.662
70701.000			25.634			-3.662
70802.000			25.633			-3.662
70900.000			25.633			-3.662
71000.000			25.632			-3.662
71101.000			25.631			-3.662
71200.000			25.630			-3.661
