# Acquired on 29/01/2024 10:46:28 
# SPIDER: Creep_10mm_GRPCNT1454A-2
# CREEP MEASUREMENT

# time [ms]		force [N]		stiffness [N/mm]
1.000			-43.257			-4.326
104.000			-43.446			-4.345
205.000			-43.188			-4.319
304.000			-42.799			-4.280
403.000			-42.502			-4.250
505.000			-42.264			-4.226
604.000			-41.884			-4.188
704.000			-41.725			-4.173
805.000			-41.582			-4.158
904.000			-41.454			-4.145
1004.000			-41.335			-4.134
1105.000			-41.226			-4.123
1204.000			-41.124			-4.112
1304.000			-41.029			-4.103
1405.000			-40.857			-4.086
1504.000			-40.778			-4.078
1603.000			-40.705			-4.070
1705.000			-40.634			-4.063
1804.000			-40.567			-4.057
1904.000			-40.503			-4.050
2005.000			-40.441			-4.044
2104.000			-40.325			-4.033
2204.000			-40.273			-4.027
2305.000			-40.222			-4.022
2404.000			-40.171			-4.017
2504.000			-40.123			-4.012
2604.000			-40.077			-4.008
2704.000			-40.033			-4.003
2803.000			-39.947			-3.995
2904.000			-39.907			-3.991
3004.000			-39.866			-3.987
3105.000			-39.827			-3.983
3204.000			-39.791			-3.979
3304.000			-39.754			-3.975
3405.000			-39.718			-3.972
3503.000			-39.683			-3.968
3604.000			-39.617			-3.962
3705.000			-39.584			-3.958
3804.000			-39.554			-3.955
3904.000			-39.523			-3.952
4004.000			-39.494			-3.949
4104.000			-39.464			-3.946
4203.000			-39.437			-3.944
4305.000			-39.381			-3.938
4404.000			-39.354			-3.935
4504.000			-39.327			-3.933
4605.000			-39.302			-3.930
4703.000			-39.278			-3.928
4804.000			-39.252			-3.925
4905.000			-39.228			-3.923
5004.000			-39.181			-3.918
5104.000			-39.158			-3.916
5205.000			-39.135			-3.913
5304.000			-39.113			-3.911
5403.000			-39.091			-3.909
5505.000			-39.070			-3.907
5604.000			-39.049			-3.905
5704.000			-39.007			-3.901
5805.000			-38.987			-3.899
5903.000			-38.969			-3.897
6005.000			-38.949			-3.895
6104.000			-38.929			-3.893
6204.000			-38.909			-3.891
6305.000			-38.891			-3.889
6404.000			-38.873			-3.887
6504.000			-38.837			-3.884
6604.000			-38.819			-3.882
6704.000			-38.801			-3.880
6804.000			-38.785			-3.878
6905.000			-38.768			-3.877
7004.000			-38.750			-3.875
7104.000			-38.735			-3.873
7205.000			-38.703			-3.870
7303.000			-38.687			-3.869
7404.000			-38.672			-3.867
7505.000			-38.656			-3.866
7604.000			-38.639			-3.864
7704.000			-38.625			-3.862
7805.000			-38.610			-3.861
7904.000			-38.582			-3.858
8003.000			-38.566			-3.857
8105.000			-38.551			-3.855
8204.000			-38.537			-3.854
8304.000			-38.523			-3.852
8405.000			-38.509			-3.851
8503.000			-38.496			-3.850
8604.000			-38.483			-3.848
8705.000			-38.456			-3.846
8804.000			-38.443			-3.844
8904.000			-38.430			-3.843
9004.000			-38.418			-3.842
9104.000			-38.405			-3.841
9203.000			-38.394			-3.839
9304.000			-38.381			-3.838
9404.000			-38.355			-3.835
9505.000			-38.343			-3.834
9604.000			-38.331			-3.833
9704.000			-38.320			-3.832
9805.000			-38.307			-3.831
9903.000			-38.296			-3.830
10004.000			-38.284			-3.828
10105.000			-38.261			-3.826
10204.000			-38.251			-3.825
10304.000			-38.240			-3.824
10405.000			-38.228			-3.823
10504.000			-38.218			-3.822
10603.000			-38.206			-3.821
10705.000			-38.196			-3.820
10804.000			-38.174			-3.817
10904.000			-38.163			-3.816
11005.000			-38.153			-3.815
11103.000			-38.143			-3.814
11204.000			-38.133			-3.813
11305.000			-38.123			-3.812
11404.000			-38.112			-3.811
11504.000			-38.102			-3.810
11605.000			-38.083			-3.808
11704.000			-38.074			-3.807
11803.000			-38.064			-3.806
11905.000			-38.054			-3.805
12004.000			-38.045			-3.805
12104.000			-38.036			-3.804
12205.000			-38.025			-3.802
12304.000			-38.008			-3.801
12405.000			-37.998			-3.800
12503.000			-37.988			-3.799
12604.000			-37.980			-3.798
12705.000			-37.971			-3.797
12804.000			-37.962			-3.796
12904.000			-37.953			-3.795
13005.000			-37.936			-3.794
13104.000			-37.926			-3.793
13203.000			-37.918			-3.792
13305.000			-37.910			-3.791
13404.000			-37.902			-3.790
13504.000			-37.894			-3.789
13605.000			-37.885			-3.789
13704.000			-37.877			-3.788
13804.000			-37.860			-3.786
13904.000			-37.853			-3.785
14004.000			-37.845			-3.784
14104.000			-37.837			-3.784
14205.000			-37.828			-3.783
14304.000			-37.820			-3.782
14404.000			-37.812			-3.781
14505.000			-37.797			-3.780
14603.000			-37.790			-3.779
14704.000			-37.782			-3.778
14805.000			-37.774			-3.777
14904.000			-37.766			-3.777
15004.000			-37.758			-3.776
15105.000			-37.750			-3.775
15204.000			-37.738			-3.774
15303.000			-37.731			-3.773
15405.000			-37.722			-3.772
15504.000			-37.713			-3.771
15605.000			-37.707			-3.771
15704.000			-37.701			-3.770
15804.000			-37.693			-3.769
15905.000			-37.678			-3.768
16003.000			-37.672			-3.767
16104.000			-37.665			-3.767
16205.000			-37.659			-3.766
16304.000			-37.652			-3.765
16404.000			-37.645			-3.765
16505.000			-37.637			-3.764
16604.000			-37.630			-3.763
16703.000			-37.617			-3.762
16805.000			-37.611			-3.761
16904.000			-37.603			-3.760
17004.000			-37.597			-3.760
17105.000			-37.591			-3.759
17204.000			-37.584			-3.758
17304.000			-37.577			-3.758
17404.000			-37.565			-3.756
17504.000			-37.558			-3.756
17604.000			-37.551			-3.755
17705.000			-37.546			-3.755
17804.000			-37.540			-3.754
17904.000			-37.533			-3.753
18005.000			-37.527			-3.753
18103.000			-37.515			-3.752
18204.000			-37.510			-3.751
18305.000			-37.504			-3.750
18404.000			-37.497			-3.750
18504.000			-37.491			-3.749
18604.000			-37.484			-3.748
18704.000			-37.479			-3.748
18803.000			-37.473			-3.747
18904.000			-37.461			-3.746
19004.000			-37.456			-3.746
19105.000			-37.450			-3.745
19204.000			-37.443			-3.744
19304.000			-37.436			-3.744
19405.000			-37.431			-3.743
19503.000			-37.425			-3.743
19604.000			-37.414			-3.741
19705.000			-37.409			-3.741
19804.000			-37.402			-3.740
19904.000			-37.396			-3.740
20004.000			-37.391			-3.739
20104.000			-37.385			-3.738
20203.000			-37.380			-3.738
20305.000			-37.370			-3.737
20404.000			-37.365			-3.736
20504.000			-37.360			-3.736
20605.000			-37.354			-3.735
20703.000			-37.349			-3.735
20804.000			-37.344			-3.734
20905.000			-37.338			-3.734
21004.000			-37.327			-3.733
21104.000			-37.321			-3.732
21205.000			-37.316			-3.732
21304.000			-37.311			-3.731
21403.000			-37.306			-3.731
21505.000			-37.301			-3.730
21604.000			-37.296			-3.730
21704.000			-37.291			-3.729
21805.000			-37.280			-3.728
21904.000			-37.274			-3.727
22005.000			-37.269			-3.727
22103.000			-37.264			-3.726
22204.000			-37.260			-3.726
22305.000			-37.254			-3.725
22404.000			-37.249			-3.725
22504.000			-37.240			-3.724
22605.000			-37.234			-3.723
22704.000			-37.229			-3.723
22803.000			-37.226			-3.723
22905.000			-37.221			-3.722
23004.000			-37.217			-3.722
23104.000			-37.211			-3.721
23205.000			-37.201			-3.720
23304.000			-37.197			-3.720
23404.000			-37.191			-3.719
23504.000			-37.187			-3.719
23604.000			-37.183			-3.718
23704.000			-37.178			-3.718
23805.000			-37.173			-3.717
23904.000			-37.163			-3.716
24003.000			-37.159			-3.716
24105.000			-37.156			-3.716
24204.000			-37.150			-3.715
24304.000			-37.145			-3.715
24405.000			-37.141			-3.714
24504.000			-37.135			-3.714
24604.000			-37.131			-3.713
24704.000			-37.122			-3.712
24804.000			-37.119			-3.712
24904.000			-37.114			-3.711
25004.000			-37.109			-3.711
25104.000			-37.105			-3.710
25205.000			-37.101			-3.710
25304.000			-37.097			-3.710
25403.000			-37.088			-3.709
25505.000			-37.082			-3.708
25604.000			-37.078			-3.708
25704.000			-37.074			-3.707
25805.000			-37.070			-3.707
25904.000			-37.066			-3.707
26004.000			-37.061			-3.706
26104.000			-37.052			-3.705
26204.000			-37.047			-3.705
26304.000			-37.044			-3.704
26405.000			-37.040			-3.704
26504.000			-37.037			-3.704
26604.000			-37.032			-3.703
26705.000			-37.029			-3.703
26803.000			-37.025			-3.702
26904.000			-37.015			-3.702
27005.000			-37.012			-3.701
27104.000			-37.007			-3.701
27204.000			-37.003			-3.700
27305.000			-37.000			-3.700
27404.000			-36.996			-3.700
27503.000			-36.991			-3.699
27605.000			-36.984			-3.698
27704.000			-36.980			-3.698
27804.000			-36.975			-3.698
27905.000			-36.971			-3.697
28004.000			-36.967			-3.697
28104.000			-36.964			-3.696
28203.000			-36.960			-3.696
28304.000			-36.952			-3.695
28405.000			-36.949			-3.695
28504.000			-36.944			-3.694
28604.000			-36.941			-3.694
28705.000			-36.936			-3.694
28804.000			-36.933			-3.693
28903.000			-36.929			-3.693
29005.000			-36.921			-3.692
29104.000			-36.917			-3.692
29204.000			-36.914			-3.691
29305.000			-36.910			-3.691
29404.000			-36.906			-3.691
29504.000			-36.901			-3.690
29604.000			-36.898			-3.690
29704.000			-36.895			-3.690
29804.000			-36.887			-3.689
29905.000			-36.884			-3.688
30004.000			-36.880			-3.688
30104.000			-36.877			-3.688
30205.000			-36.873			-3.687
30303.000			-36.869			-3.687
30404.000			-36.866			-3.687
30505.000			-36.859			-3.686
30604.000			-36.855			-3.685
30704.000			-36.852			-3.685
30805.000			-36.849			-3.685
30904.000			-36.845			-3.685
31003.000			-36.842			-3.684
31105.000			-36.838			-3.684
31204.000			-36.831			-3.683
31304.000			-36.827			-3.683
31405.000			-36.823			-3.682
31504.000			-36.820			-3.682
31605.000			-36.817			-3.682
31703.000			-36.813			-3.681
31804.000			-36.811			-3.681
31905.000			-36.802			-3.680
32004.000			-36.799			-3.680
32104.000			-36.795			-3.679
32205.000			-36.791			-3.679
32304.000			-36.788			-3.679
32403.000			-36.785			-3.679
32505.000			-36.782			-3.678
32604.000			-36.779			-3.678
32704.000			-36.771			-3.677
32805.000			-36.768			-3.677
32904.000			-36.766			-3.677
33004.000			-36.763			-3.676
33104.000			-36.760			-3.676
33204.000			-36.757			-3.676
33304.000			-36.752			-3.675
33405.000			-36.746			-3.675
33504.000			-36.742			-3.674
33603.000			-36.738			-3.674
33705.000			-36.736			-3.674
33804.000			-36.732			-3.673
33904.000			-36.728			-3.673
34005.000			-36.725			-3.673
34104.000			-36.720			-3.672
34204.000			-36.717			-3.672
34304.000			-36.713			-3.671
34404.000			-36.709			-3.671
34504.000			-36.707			-3.671
34604.000			-36.704			-3.670
34704.000			-36.701			-3.670
34805.000			-36.698			-3.670
34904.000			-36.691			-3.669
35003.000			-36.688			-3.669
35105.000			-36.685			-3.669
35204.000			-36.683			-3.668
35304.000			-36.680			-3.668
35405.000			-36.675			-3.668
35504.000			-36.671			-3.667
35604.000			-36.667			-3.667
35704.000			-36.663			-3.666
35804.000			-36.661			-3.666
35904.000			-36.658			-3.666
36005.000			-36.655			-3.665
36104.000			-36.652			-3.665
36204.000			-36.649			-3.665
36305.000			-36.642			-3.664
36403.000			-36.639			-3.664
36504.000			-36.636			-3.664
36605.000			-36.634			-3.663
36704.000			-36.631			-3.663
36804.000			-36.629			-3.663
36905.000			-36.626			-3.663
37004.000			-36.622			-3.662
37103.000			-36.616			-3.662
37205.000			-36.613			-3.661
37304.000			-36.610			-3.661
37404.000			-36.607			-3.661
37505.000			-36.604			-3.660
37604.000			-36.601			-3.660
37704.000			-36.599			-3.660
37803.000			-36.592			-3.659
37904.000			-36.590			-3.659
38005.000			-36.587			-3.659
38104.000			-36.585			-3.658
38204.000			-36.581			-3.658
38305.000			-36.578			-3.658
38404.000			-36.576			-3.658
38503.000			-36.571			-3.657
38605.000			-36.568			-3.657
38704.000			-36.564			-3.656
38804.000			-36.560			-3.656
38905.000			-36.558			-3.656
39004.000			-36.555			-3.656
39104.000			-36.552			-3.655
39204.000			-36.548			-3.655
39304.000			-36.545			-3.654
39404.000			-36.542			-3.654
39505.000			-36.539			-3.654
39604.000			-36.538			-3.654
39704.000			-36.534			-3.653
39805.000			-36.531			-3.653
39903.000			-36.528			-3.653
40004.000			-36.524			-3.652
40105.000			-36.520			-3.652
40204.000			-36.518			-3.652
40304.000			-36.515			-3.652
40404.000			-36.513			-3.651
40504.000			-36.510			-3.651
40604.000			-36.507			-3.651
40705.000			-36.502			-3.650
40804.000			-36.499			-3.650
40904.000			-36.496			-3.650
41005.000			-36.494			-3.649
41103.000			-36.491			-3.649
41205.000			-36.487			-3.649
41304.000			-36.485			-3.649
41404.000			-36.479			-3.648
41505.000			-36.477			-3.648
41604.000			-36.475			-3.647
41704.000			-36.472			-3.647
41804.000			-36.470			-3.647
41904.000			-36.468			-3.647
42004.000			-36.466			-3.647
42105.000			-36.462			-3.646
42204.000			-36.457			-3.646
42304.000			-36.455			-3.645
42405.000			-36.452			-3.645
42503.000			-36.450			-3.645
42604.000			-36.447			-3.645
42705.000			-36.445			-3.644
42804.000			-36.442			-3.644
42904.000			-36.439			-3.644
43005.000			-36.435			-3.644
43104.000			-36.432			-3.643
43203.000			-36.429			-3.643
43305.000			-36.427			-3.643
43404.000			-36.426			-3.643
43504.000			-36.423			-3.642
43605.000			-36.417			-3.642
43704.000			-36.415			-3.641
43804.000			-36.411			-3.641
43904.000			-36.408			-3.641
44004.000			-36.406			-3.641
44104.000			-36.403			-3.640
44204.000			-36.402			-3.640
44304.000			-36.398			-3.640
44403.000			-36.395			-3.639
44504.000			-36.392			-3.639
44603.000			-36.390			-3.639
44705.000			-36.388			-3.639
44804.000			-36.385			-3.639
44904.000			-36.383			-3.638
45005.000			-36.381			-3.638
45103.000			-36.376			-3.638
45204.000			-36.373			-3.637
45305.000			-36.371			-3.637
45404.000			-36.369			-3.637
45504.000			-36.366			-3.637
45605.000			-36.363			-3.636
45704.000			-36.361			-3.636
45803.000			-36.356			-3.636
45905.000			-36.353			-3.635
46004.000			-36.351			-3.635
46104.000			-36.348			-3.635
46205.000			-36.346			-3.635
46304.000			-36.344			-3.634
46404.000			-36.342			-3.634
46504.000			-36.337			-3.634
46604.000			-36.336			-3.634
46704.000			-36.333			-3.633
46805.000			-36.330			-3.633
46904.000			-36.328			-3.633
47004.000			-36.325			-3.633
47105.000			-36.323			-3.632
47203.000			-36.321			-3.632
47304.000			-36.316			-3.632
47405.000			-36.315			-3.632
47504.000			-36.313			-3.631
47605.000			-36.310			-3.631
47704.000			-36.307			-3.631
47804.000			-36.306			-3.631
47904.000			-36.304			-3.630
48004.000			-36.299			-3.630
48104.000			-36.297			-3.630
48205.000			-36.294			-3.629
48304.000			-36.292			-3.629
48404.000			-36.290			-3.629
48505.000			-36.287			-3.629
48603.000			-36.285			-3.629
48704.000			-36.280			-3.628
48805.000			-36.278			-3.628
48904.000			-36.276			-3.628
49004.000			-36.273			-3.627
49105.000			-36.271			-3.627
49204.000			-36.269			-3.627
49303.000			-36.267			-3.627
49405.000			-36.263			-3.626
49504.000			-36.261			-3.626
49604.000			-36.258			-3.626
49705.000			-36.256			-3.626
49804.000			-36.255			-3.625
49904.000			-36.252			-3.625
50004.000			-36.250			-3.625
50104.000			-36.248			-3.625
50204.000			-36.244			-3.624
50305.000			-36.242			-3.624
50404.000			-36.240			-3.624
50504.000			-36.236			-3.624
50605.000			-36.234			-3.623
50704.000			-36.233			-3.623
50805.000			-36.232			-3.623
50904.000			-36.227			-3.623
51004.000			-36.225			-3.622
51105.000			-36.223			-3.622
51203.000			-36.221			-3.622
51304.000			-36.218			-3.622
51405.000			-36.216			-3.622
51504.000			-36.214			-3.621
51604.000			-36.210			-3.621
51705.000			-36.207			-3.621
51804.000			-36.206			-3.621
51903.000			-36.204			-3.620
52005.000			-36.202			-3.620
52104.000			-36.200			-3.620
52204.000			-36.198			-3.620
52305.000			-36.194			-3.619
52404.000			-36.191			-3.619
52504.000			-36.189			-3.619
52604.000			-36.188			-3.619
52704.000			-36.185			-3.619
52804.000			-36.183			-3.618
52905.000			-36.181			-3.618
53004.000			-36.179			-3.618
53104.000			-36.175			-3.617
53205.000			-36.173			-3.617
53303.000			-36.172			-3.617
53404.000			-36.170			-3.617
53505.000			-36.168			-3.617
53604.000			-36.165			-3.617
53704.000			-36.163			-3.616
53804.000			-36.158			-3.616
53904.000			-36.157			-3.616
54003.000			-36.155			-3.615
54104.000			-36.153			-3.615
54204.000			-36.151			-3.615
54305.000			-36.149			-3.615
54404.000			-36.147			-3.615
54504.000			-36.143			-3.614
54605.000			-36.141			-3.614
54703.000			-36.138			-3.614
54804.000			-36.136			-3.614
54905.000			-36.135			-3.613
55004.000			-36.134			-3.613
55104.000			-36.132			-3.613
55204.000			-36.130			-3.613
55304.000			-36.125			-3.612
55403.000			-36.123			-3.612
55505.000			-36.122			-3.612
55604.000			-36.119			-3.612
55704.000			-36.118			-3.612
55805.000			-36.116			-3.612
55903.000			-36.113			-3.611
56004.000			-36.109			-3.611
56105.000			-36.107			-3.611
56204.000			-36.105			-3.611
56304.000			-36.104			-3.610
56405.000			-36.103			-3.610
56504.000			-36.100			-3.610
56603.000			-36.098			-3.610
56705.000			-36.095			-3.609
56804.000			-36.093			-3.609
56904.000			-36.092			-3.609
57005.000			-36.089			-3.609
57104.000			-36.086			-3.609
57205.000			-36.084			-3.608
57303.000			-36.082			-3.608
57404.000			-36.081			-3.608
57505.000			-36.077			-3.608
57604.000			-36.076			-3.608
57704.000			-36.076			-3.608
57805.000			-36.073			-3.607
57904.000			-36.070			-3.607
58003.000			-36.067			-3.607
58105.000			-36.065			-3.606
58204.000			-36.063			-3.606
58304.000			-36.061			-3.606
58405.000			-36.059			-3.606
58504.000			-36.057			-3.606
58604.000			-36.056			-3.606
58704.000			-36.054			-3.605
58804.000			-36.051			-3.605
58904.000			-36.047			-3.605
59005.000			-36.046			-3.605
59104.000			-36.045			-3.604
59204.000			-36.043			-3.604
59305.000			-36.041			-3.604
59403.000			-36.039			-3.604
59504.000			-36.038			-3.604
59605.000			-36.033			-3.603
59704.000			-36.031			-3.603
59804.000			-36.030			-3.603
59905.000			-36.028			-3.603
60004.000			-36.027			-3.603
60103.000			-36.024			-3.602
60205.000			-36.023			-3.602
60304.000			-36.021			-3.602
60405.000			-36.017			-3.602
60504.000			-36.015			-3.602
60603.000			-36.014			-3.601
60705.000			-36.012			-3.601
60804.000			-36.011			-3.601
60904.000			-36.008			-3.601
61005.000			-36.006			-3.601
61104.000			-36.003			-3.600
61204.000			-36.001			-3.600
61304.000			-36.000			-3.600
61404.000			-35.998			-3.600
61504.000			-35.996			-3.600
61605.000			-35.994			-3.599
61704.000			-35.991			-3.599
61804.000			-35.989			-3.599
61905.000			-35.988			-3.599
62003.000			-35.986			-3.599
62104.000			-35.985			-3.598
62205.000			-35.982			-3.598
62304.000			-35.981			-3.598
62404.000			-35.978			-3.598
62505.000			-35.977			-3.598
62604.000			-35.973			-3.597
62704.000			-35.972			-3.597
62805.000			-35.971			-3.597
62903.000			-35.970			-3.597
63004.000			-35.968			-3.597
63105.000			-35.965			-3.596
63204.000			-35.963			-3.596
63304.000			-35.959			-3.596
63404.000			-35.958			-3.596
63504.000			-35.956			-3.596
63603.000			-35.955			-3.596
63704.000			-35.953			-3.595
63804.000			-35.953			-3.595
63905.000			-35.950			-3.595
64004.000			-35.946			-3.595
64104.000			-35.944			-3.594
64205.000			-35.943			-3.594
64303.000			-35.942			-3.594
64404.000			-35.940			-3.594
64505.000			-35.937			-3.594
64604.000			-35.936			-3.594
64704.000			-35.934			-3.593
64805.000			-35.932			-3.593
64904.000			-35.931			-3.593
65003.000			-35.928			-3.593
65105.000			-35.927			-3.593
65204.000			-35.925			-3.592
65304.000			-35.923			-3.592
65405.000			-35.921			-3.592
65504.000			-35.917			-3.592
65604.000			-35.916			-3.592
65704.000			-35.916			-3.592
65804.000			-35.914			-3.591
65904.000			-35.913			-3.591
66005.000			-35.910			-3.591
66104.000			-35.908			-3.591
66204.000			-35.905			-3.590
66305.000			-35.903			-3.590
66403.000			-35.902			-3.590
66504.000			-35.901			-3.590
66605.000			-35.899			-3.590
66704.000			-35.897			-3.590
66805.000			-35.895			-3.590
66904.000			-35.892			-3.589
67004.000			-35.890			-3.589
67104.000			-35.889			-3.589
67204.000			-35.887			-3.589
67304.000			-35.886			-3.589
67405.000			-35.885			-3.588
67504.000			-35.883			-3.588
67604.000			-35.881			-3.588
67705.000			-35.878			-3.588
67803.000			-35.876			-3.588
67904.000			-35.874			-3.587
68005.000			-35.873			-3.587
68104.000			-35.872			-3.587
68204.000			-35.870			-3.587
68305.000			-35.869			-3.587
68404.000			-35.865			-3.586
68503.000			-35.864			-3.586
68605.000			-35.862			-3.586
68703.000			-35.860			-3.586
