# Acquired on 26/01/2024 12:22:23 
# SPIDER: Creep_-4mm_HM077x145x38AB-1
# CREEP MEASUREMENT

# time [ms]		force [N]		stiffness [N/mm]
1.000			13.464			-3.366
104.000			14.105			-3.526
205.000			14.311			-3.578
304.000			14.267			-3.567
403.000			14.239			-3.560
505.000			14.215			-3.554
604.000			14.194			-3.549
704.000			14.175			-3.544
805.000			14.159			-3.540
903.000			14.143			-3.536
1004.000			14.128			-3.532
1105.000			14.102			-3.526
1204.000			14.091			-3.523
1304.000			14.079			-3.520
1404.000			14.069			-3.517
1504.000			14.059			-3.515
1604.000			14.050			-3.512
1705.000			14.041			-3.510
1804.000			14.024			-3.506
1904.000			14.016			-3.504
2005.000			14.008			-3.502
2103.000			14.000			-3.500
2204.000			13.993			-3.498
2305.000			13.987			-3.497
2404.000			13.982			-3.495
2504.000			13.968			-3.492
2604.000			13.961			-3.490
2704.000			13.955			-3.489
2805.000			13.949			-3.487
2904.000			13.944			-3.486
3004.000			13.939			-3.485
3105.000			13.933			-3.483
3204.000			13.922			-3.480
3303.000			13.917			-3.479
3405.000			13.912			-3.478
3504.000			13.906			-3.477
3604.000			13.902			-3.476
3705.000			13.897			-3.474
3804.000			13.893			-3.473
3904.000			13.888			-3.472
4004.000			13.881			-3.470
4104.000			13.875			-3.469
4204.000			13.872			-3.468
4305.000			13.868			-3.467
4404.000			13.864			-3.466
4503.000			13.860			-3.465
4605.000			13.856			-3.464
4704.000			13.849			-3.462
4804.000			13.846			-3.461
4905.000			13.842			-3.460
5004.000			13.837			-3.459
5104.000			13.834			-3.458
5204.000			13.831			-3.458
5304.000			13.828			-3.457
5404.000			13.822			-3.455
5505.000			13.818			-3.454
5604.000			13.815			-3.454
5704.000			13.812			-3.453
5805.000			13.808			-3.452
5904.000			13.805			-3.451
6005.000			13.802			-3.451
6104.000			13.799			-3.450
6204.000			13.794			-3.448
6305.000			13.791			-3.448
6403.000			13.788			-3.447
6504.000			13.785			-3.446
6605.000			13.782			-3.445
6704.000			13.779			-3.445
6804.000			13.777			-3.444
6905.000			13.772			-3.443
7004.000			13.769			-3.442
7103.000			13.766			-3.441
7205.000			13.763			-3.441
7304.000			13.760			-3.440
7404.000			13.758			-3.439
7505.000			13.755			-3.439
7604.000			13.750			-3.438
7704.000			13.748			-3.437
7804.000			13.746			-3.436
7904.000			13.743			-3.436
8004.000			13.741			-3.435
8105.000			13.738			-3.435
8204.000			13.737			-3.434
8304.000			13.734			-3.434
8405.000			13.730			-3.432
8503.000			13.727			-3.432
8604.000			13.725			-3.431
8705.000			13.723			-3.431
8804.000			13.721			-3.430
8904.000			13.718			-3.430
9004.000			13.717			-3.429
9104.000			13.714			-3.428
9205.000			13.711			-3.428
9304.000			13.708			-3.427
9404.000			13.706			-3.426
9505.000			13.703			-3.426
9604.000			13.703			-3.426
9703.000			13.701			-3.425
9805.000			13.697			-3.424
9904.000			13.694			-3.424
10004.000			13.692			-3.423
10105.000			13.690			-3.423
10204.000			13.689			-3.422
10304.000			13.687			-3.422
10404.000			13.685			-3.421
10504.000			13.682			-3.420
10604.000			13.679			-3.420
10705.000			13.677			-3.419
10804.000			13.676			-3.419
10903.000			13.674			-3.418
11005.000			13.671			-3.418
11104.000			13.670			-3.417
11204.000			13.669			-3.417
11305.000			13.665			-3.416
11404.000			13.664			-3.416
11504.000			13.661			-3.415
11604.000			13.659			-3.415
11704.000			13.658			-3.414
11804.000			13.657			-3.414
11905.000			13.656			-3.414
12004.000			13.651			-3.413
12104.000			13.651			-3.413
12205.000			13.649			-3.412
12303.000			13.646			-3.412
12405.000			13.644			-3.411
12504.000			13.643			-3.411
12604.000			13.641			-3.410
12705.000			13.637			-3.409
12804.000			13.637			-3.409
12904.000			13.636			-3.409
13004.000			13.634			-3.408
13104.000			13.632			-3.408
13204.000			13.630			-3.408
13305.000			13.629			-3.407
13404.000			13.627			-3.407
13503.000			13.625			-3.406
13605.000			13.623			-3.406
13704.000			13.621			-3.405
13804.000			13.620			-3.405
13905.000			13.619			-3.405
14004.000			13.618			-3.405
14104.000			13.617			-3.404
14204.000			13.613			-3.403
14304.000			13.611			-3.403
14404.000			13.610			-3.403
14505.000			13.609			-3.402
14604.000			13.607			-3.402
14704.000			13.606			-3.402
14805.000			13.606			-3.401
14903.000			13.603			-3.401
15004.000			13.602			-3.401
15105.000			13.601			-3.400
15204.000			13.599			-3.400
15304.000			13.597			-3.399
15405.000			13.596			-3.399
15504.000			13.594			-3.399
15603.000			13.593			-3.398
15704.000			13.591			-3.398
15804.000			13.589			-3.397
15905.000			13.587			-3.397
16004.000			13.585			-3.396
16104.000			13.584			-3.396
16205.000			13.584			-3.396
16303.000			13.583			-3.396
16404.000			13.580			-3.395
16505.000			13.579			-3.395
16604.000			13.578			-3.394
16704.000			13.577			-3.394
16804.000			13.576			-3.394
16904.000			13.574			-3.394
17003.000			13.573			-3.393
17105.000			13.571			-3.393
17204.000			13.570			-3.393
17304.000			13.569			-3.392
17405.000			13.567			-3.392
17503.000			13.566			-3.392
17604.000			13.566			-3.391
17705.000			13.564			-3.391
17804.000			13.561			-3.390
17904.000			13.561			-3.390
18005.000			13.559			-3.390
18104.000			13.559			-3.390
18203.000			13.557			-3.389
18305.000			13.557			-3.389
18404.000			13.556			-3.389
18504.000			13.554			-3.388
18605.000			13.551			-3.388
18704.000			13.551			-3.388
18805.000			13.550			-3.387
18903.000			13.549			-3.387
19004.000			13.547			-3.387
19105.000			13.546			-3.387
19204.000			13.545			-3.386
19304.000			13.544			-3.386
19405.000			13.542			-3.385
19504.000			13.541			-3.385
19603.000			13.541			-3.385
19705.000			13.540			-3.385
19804.000			13.538			-3.385
19904.000			13.536			-3.384
20005.000			13.535			-3.384
20104.000			13.535			-3.384
20204.000			13.533			-3.383
20304.000			13.531			-3.383
20404.000			13.530			-3.383
20504.000			13.530			-3.382
20605.000			13.528			-3.382
20704.000			13.527			-3.382
20803.000			13.526			-3.382
20905.000			13.526			-3.381
21004.000			13.525			-3.381
21104.000			13.522			-3.381
21205.000			13.521			-3.380
21304.000			13.520			-3.380
21404.000			13.520			-3.380
21504.000			13.518			-3.379
21604.000			13.518			-3.379
21704.000			13.517			-3.379
21805.000			13.515			-3.379
21904.000			13.514			-3.379
22005.000			13.513			-3.378
22104.000			13.513			-3.378
22203.000			13.511			-3.378
22305.000			13.510			-3.377
22404.000			13.508			-3.377
22504.000			13.507			-3.377
22605.000			13.507			-3.377
22703.000			13.506			-3.377
22804.000			13.505			-3.376
22905.000			13.503			-3.376
23004.000			13.503			-3.376
23104.000			13.502			-3.376
23205.000			13.502			-3.375
23304.000			13.500			-3.375
23403.000			13.499			-3.375
23505.000			13.498			-3.374
23604.000			13.497			-3.374
23704.000			13.496			-3.374
23805.000			13.495			-3.374
23904.000			13.494			-3.373
24004.000			13.492			-3.373
24104.000			13.491			-3.373
24204.000			13.491			-3.373
24304.000			13.491			-3.373
24405.000			13.489			-3.372
24504.000			13.489			-3.372
24603.000			13.487			-3.372
24705.000			13.486			-3.371
24804.000			13.485			-3.371
24904.000			13.484			-3.371
25005.000			13.483			-3.371
25104.000			13.482			-3.370
25205.000			13.481			-3.370
25303.000			13.481			-3.370
25404.000			13.480			-3.370
25505.000			13.478			-3.370
25604.000			13.477			-3.369
25704.000			13.477			-3.369
25805.000			13.476			-3.369
25904.000			13.475			-3.369
26003.000			13.474			-3.368
26105.000			13.473			-3.368
26204.000			13.471			-3.368
26304.000			13.471			-3.368
26405.000			13.470			-3.368
26504.000			13.469			-3.367
26604.000			13.468			-3.367
26704.000			13.466			-3.367
26804.000			13.467			-3.367
26904.000			13.467			-3.367
27005.000			13.465			-3.366
27104.000			13.464			-3.366
27204.000			13.463			-3.366
27305.000			13.462			-3.366
27403.000			13.462			-3.365
27504.000			13.460			-3.365
27605.000			13.459			-3.365
27704.000			13.459			-3.365
27804.000			13.459			-3.365
27905.000			13.458			-3.365
28004.000			13.456			-3.364
28103.000			13.455			-3.364
28205.000			13.454			-3.364
28304.000			13.455			-3.364
28405.000			13.454			-3.364
28504.000			13.453			-3.363
28604.000			13.451			-3.363
28705.000			13.449			-3.362
28803.000			13.449			-3.362
28904.000			13.448			-3.362
29005.000			13.447			-3.362
29104.000			13.447			-3.362
29204.000			13.446			-3.362
29305.000			13.445			-3.361
29404.000			13.444			-3.361
29503.000			13.444			-3.361
29605.000			13.443			-3.361
29704.000			13.442			-3.360
29804.000			13.440			-3.360
29905.000			13.440			-3.360
30004.000			13.439			-3.360
30104.000			13.439			-3.360
30204.000			13.437			-3.359
30304.000			13.436			-3.359
30404.000			13.436			-3.359
30505.000			13.435			-3.359
30604.000			13.435			-3.359
30703.000			13.435			-3.359
30805.000			13.433			-3.358
30904.000			13.432			-3.358
31004.000			13.431			-3.358
31105.000			13.430			-3.358
31204.000			13.429			-3.357
31304.000			13.429			-3.357
31404.000			13.428			-3.357
31504.000			13.428			-3.357
31605.000			13.426			-3.356
31704.000			13.425			-3.356
31804.000			13.425			-3.356
31905.000			13.424			-3.356
32004.000			13.424			-3.356
32103.000			13.423			-3.356
32205.000			13.423			-3.356
32304.000			13.422			-3.356
32404.000			13.421			-3.355
32505.000			13.419			-3.355
32603.000			13.419			-3.355
32704.000			13.419			-3.355
32805.000			13.417			-3.354
32904.000			13.416			-3.354
33004.000			13.416			-3.354
33105.000			13.415			-3.354
33204.000			13.414			-3.353
33303.000			13.413			-3.353
33405.000			13.413			-3.353
33504.000			13.412			-3.353
33604.000			13.412			-3.353
33705.000			13.411			-3.353
33803.000			13.411			-3.353
33904.000			13.410			-3.353
34005.000			13.408			-3.352
34104.000			13.408			-3.352
34204.000			13.408			-3.352
34305.000			13.407			-3.352
34404.000			13.406			-3.352
34503.000			13.405			-3.351
34605.000			13.404			-3.351
34704.000			13.404			-3.351
34805.000			13.404			-3.351
34904.000			13.403			-3.351
35004.000			13.402			-3.350
35105.000			13.402			-3.351
35203.000			13.402			-3.351
35304.000			13.399			-3.350
35405.000			13.398			-3.350
35504.000			13.397			-3.349
35604.000			13.397			-3.349
35704.000			13.397			-3.349
35804.000			13.396			-3.349
35903.000			13.395			-3.349
36005.000			13.394			-3.349
36104.000			13.393			-3.348
36204.000			13.393			-3.348
36305.000			13.392			-3.348
36403.000			13.392			-3.348
36504.000			13.390			-3.348
36605.000			13.391			-3.348
36704.000			13.390			-3.347
36804.000			13.389			-3.347
36905.000			13.388			-3.347
37004.000			13.387			-3.347
37103.000			13.386			-3.347
37205.000			13.386			-3.346
37304.000			13.385			-3.346
37404.000			13.385			-3.346
37505.000			13.383			-3.346
37604.000			13.383			-3.346
37704.000			13.382			-3.345
37804.000			13.381			-3.345
37904.000			13.380			-3.345
38005.000			13.381			-3.345
38104.000			13.380			-3.345
38204.000			13.379			-3.345
38305.000			13.379			-3.345
38404.000			13.378			-3.344
38503.000			13.377			-3.344
38605.000			13.376			-3.344
38704.000			13.377			-3.344
38804.000			13.376			-3.344
38905.000			13.374			-3.343
39004.000			13.373			-3.343
39104.000			13.373			-3.343
39204.000			13.373			-3.343
39304.000			13.372			-3.343
39404.000			13.371			-3.343
39505.000			13.370			-3.343
39604.000			13.370			-3.343
39704.000			13.368			-3.342
39805.000			13.368			-3.342
39903.000			13.369			-3.342
40004.000			13.368			-3.342
40105.000			13.366			-3.341
40204.000			13.366			-3.341
40304.000			13.365			-3.341
40405.000			13.365			-3.341
40504.000			13.364			-3.341
40603.000			13.364			-3.341
40705.000			13.363			-3.341
40804.000			13.363			-3.341
40904.000			13.362			-3.341
41005.000			13.361			-3.340
41103.000			13.362			-3.340
41205.000			13.360			-3.340
41304.000			13.359			-3.340
41404.000			13.358			-3.340
41505.000			13.358			-3.339
41604.000			13.358			-3.339
41704.000			13.357			-3.339
41804.000			13.356			-3.339
41904.000			13.355			-3.339
42004.000			13.354			-3.339
42105.000			13.354			-3.339
42204.000			13.353			-3.338
42304.000			13.354			-3.338
42405.000			13.353			-3.338
42503.000			13.352			-3.338
42604.000			13.351			-3.338
42705.000			13.351			-3.338
42804.000			13.352			-3.338
42904.000			13.350			-3.338
43005.000			13.349			-3.337
43104.000			13.348			-3.337
43203.000			13.348			-3.337
43305.000			13.347			-3.337
43404.000			13.347			-3.337
43504.000			13.346			-3.336
43605.000			13.345			-3.336
43703.000			13.345			-3.336
43804.000			13.345			-3.336
43905.000			13.345			-3.336
44004.000			13.343			-3.336
44104.000			13.343			-3.336
44205.000			13.342			-3.336
44304.000			13.342			-3.335
44403.000			13.340			-3.335
44504.000			13.340			-3.335
44604.000			13.340			-3.335
44705.000			13.340			-3.335
44804.000			13.339			-3.335
44904.000			13.338			-3.334
45005.000			13.337			-3.334
45103.000			13.338			-3.334
45204.000			13.337			-3.334
45305.000			13.335			-3.334
45404.000			13.336			-3.334
45504.000			13.335			-3.334
45604.000			13.335			-3.334
45704.000			13.333			-3.333
45804.000			13.333			-3.333
45905.000			13.333			-3.333
46004.000			13.333			-3.333
46104.000			13.332			-3.333
46205.000			13.331			-3.333
46303.000			13.331			-3.333
46404.000			13.330			-3.333
46505.000			13.330			-3.333
46604.000			13.329			-3.332
46704.000			13.328			-3.332
46805.000			13.328			-3.332
46904.000			13.327			-3.332
47003.000			13.326			-3.331
47105.000			13.325			-3.331
47204.000			13.325			-3.331
47304.000			13.325			-3.331
47405.000			13.325			-3.331
47504.000			13.325			-3.331
47605.000			13.325			-3.331
47703.000			13.322			-3.331
47804.000			13.322			-3.330
47905.000			13.322			-3.330
48004.000			13.321			-3.330
48104.000			13.320			-3.330
48205.000			13.320			-3.330
48304.000			13.320			-3.330
48403.000			13.319			-3.330
48505.000			13.318			-3.330
48604.000			13.317			-3.329
48704.000			13.317			-3.329
48805.000			13.317			-3.329
48903.000			13.316			-3.329
49004.000			13.316			-3.329
49105.000			13.316			-3.329
49204.000			13.316			-3.329
49304.000			13.314			-3.329
49405.000			13.313			-3.328
49504.000			13.313			-3.328
49603.000			13.312			-3.328
49705.000			13.313			-3.328
49804.000			13.311			-3.328
49904.000			13.310			-3.328
50005.000			13.311			-3.328
50104.000			13.311			-3.328
50204.000			13.310			-3.327
50304.000			13.309			-3.327
50404.000			13.309			-3.327
50504.000			13.308			-3.327
50605.000			13.308			-3.327
50704.000			13.307			-3.327
50805.000			13.306			-3.327
50904.000			13.305			-3.326
51003.000			13.305			-3.326
51105.000			13.305			-3.326
51204.000			13.305			-3.326
51304.000			13.304			-3.326
51405.000			13.303			-3.326
51503.000			13.302			-3.326
51604.000			13.302			-3.326
51705.000			13.302			-3.325
51804.000			13.302			-3.325
51904.000			13.301			-3.325
52005.000			13.301			-3.325
52104.000			13.300			-3.325
52203.000			13.300			-3.325
52305.000			13.300			-3.325
52404.000			13.298			-3.324
52504.000			13.298			-3.324
52605.000			13.298			-3.324
52703.000			13.297			-3.324
52804.000			13.297			-3.324
52905.000			13.297			-3.324
53004.000			13.296			-3.324
53104.000			13.295			-3.324
53205.000			13.295			-3.324
53304.000			13.294			-3.323
53403.000			13.295			-3.324
53505.000			13.293			-3.323
53604.000			13.294			-3.323
53704.000			13.293			-3.323
53805.000			13.292			-3.323
53904.000			13.292			-3.323
54005.000			13.291			-3.323
54103.000			13.291			-3.323
54204.000			13.290			-3.323
54305.000			13.290			-3.322
54404.000			13.289			-3.322
54504.000			13.289			-3.322
54605.000			13.289			-3.322
54704.000			13.288			-3.322
54803.000			13.288			-3.322
54905.000			13.286			-3.322
55004.000			13.286			-3.322
55104.000			13.287			-3.322
55205.000			13.286			-3.322
55304.000			13.285			-3.321
55404.000			13.285			-3.321
55504.000			13.285			-3.321
55604.000			13.284			-3.321
55704.000			13.283			-3.321
55805.000			13.283			-3.321
55904.000			13.282			-3.321
56003.000			13.282			-3.321
56105.000			13.282			-3.321
56204.000			13.282			-3.320
56304.000			13.280			-3.320
56405.000			13.280			-3.320
56504.000			13.280			-3.320
56604.000			13.279			-3.320
56704.000			13.279			-3.320
56804.000			13.278			-3.320
56904.000			13.278			-3.319
57005.000			13.276			-3.319
57104.000			13.278			-3.319
57205.000			13.277			-3.319
57304.000			13.276			-3.319
57403.000			13.277			-3.319
57505.000			13.276			-3.319
57604.000			13.275			-3.319
57704.000			13.275			-3.319
57805.000			13.275			-3.319
57904.000			13.274			-3.318
58004.000			13.273			-3.318
58104.000			13.274			-3.318
58204.000			13.273			-3.318
58304.000			13.272			-3.318
58405.000			13.272			-3.318
58504.000			13.272			-3.318
58604.000			13.271			-3.318
58705.000			13.270			-3.318
58803.000			13.271			-3.318
58904.000			13.270			-3.317
59005.000			13.270			-3.317
59104.000			13.270			-3.317
59204.000			13.269			-3.317
59305.000			13.267			-3.317
59404.000			13.267			-3.317
59503.000			13.266			-3.316
59605.000			13.266			-3.317
59704.000			13.267			-3.317
59804.000			13.267			-3.317
59905.000			13.266			-3.316
60004.000			13.265			-3.316
60104.000			13.265			-3.316
60204.000			13.265			-3.316
60304.000			13.264			-3.316
60405.000			13.264			-3.316
60504.000			13.263			-3.316
60604.000			13.263			-3.316
60704.000			13.263			-3.316
60804.000			13.262			-3.315
60904.000			13.261			-3.315
61005.000			13.261			-3.315
61104.000			13.260			-3.315
61204.000			13.259			-3.315
61305.000			13.259			-3.315
61403.000			13.258			-3.315
61504.000			13.259			-3.315
61605.000			13.258			-3.314
61704.000			13.258			-3.314
61804.000			13.258			-3.314
61905.000			13.257			-3.314
62004.000			13.256			-3.314
62103.000			13.256			-3.314
62205.000			13.256			-3.314
62304.000			13.255			-3.314
62404.000			13.255			-3.314
62505.000			13.255			-3.314
62603.000			13.256			-3.314
62704.000			13.254			-3.313
62805.000			13.253			-3.313
62904.000			13.254			-3.313
63004.000			13.253			-3.313
63105.000			13.252			-3.313
63204.000			13.251			-3.313
63303.000			13.252			-3.313
63405.000			13.251			-3.313
63504.000			13.250			-3.313
63605.000			13.250			-3.312
63704.000			13.250			-3.313
63804.000			13.249			-3.312
63905.000			13.248			-3.312
64003.000			13.249			-3.312
64104.000			13.249			-3.312
64205.000			13.249			-3.312
64304.000			13.247			-3.312
64404.000			13.247			-3.312
64505.000			13.247			-3.312
64604.000			13.246			-3.311
64703.000			13.245			-3.311
64805.000			13.245			-3.311
64904.000			13.246			-3.311
65004.000			13.244			-3.311
65105.000			13.244			-3.311
65204.000			13.243			-3.311
65304.000			13.242			-3.310
65404.000			13.242			-3.310
65504.000			13.241			-3.310
65604.000			13.241			-3.310
65705.000			13.241			-3.310
65804.000			13.241			-3.310
65903.000			13.241			-3.310
66005.000			13.240			-3.310
66104.000			13.239			-3.310
66204.000			13.238			-3.310
66305.000			13.238			-3.310
66404.000			13.238			-3.310
66504.000			13.238			-3.310
66604.000			13.237			-3.309
66704.000			13.236			-3.309
66805.000			13.237			-3.309
66904.000			13.237			-3.309
67004.000			13.236			-3.309
67105.000			13.237			-3.309
67204.000			13.235			-3.309
67303.000			13.235			-3.309
67405.000			13.235			-3.309
67504.000			13.234			-3.309
67604.000			13.234			-3.308
67705.000			13.234			-3.308
67804.000			13.233			-3.308
67904.000			13.233			-3.308
68004.000			13.232			-3.308
68104.000			13.232			-3.308
68204.000			13.232			-3.308
68305.000			13.232			-3.308
68404.000			13.231			-3.308
68504.000			13.230			-3.307
68605.000			13.229			-3.307
68703.000			13.229			-3.307
68804.000			13.228			-3.307
68905.000			13.228			-3.307
69004.000			13.229			-3.307
69104.000			13.228			-3.307
69205.000			13.228			-3.307
69304.000			13.228			-3.307
69403.000			13.228			-3.307
69505.000			13.227			-3.307
69604.000			13.227			-3.307
69704.000			13.227			-3.307
69805.000			13.226			-3.307
69904.000			13.226			-3.307
70005.000			13.227			-3.307
70103.000			13.227			-3.307
70204.000			13.226			-3.307
70305.000			13.226			-3.306
70404.000			13.227			-3.307
70504.000			13.225			-3.306
70604.000			13.226			-3.306
70704.000			13.226			-3.306
70804.000			13.226			-3.307
70905.000			13.225			-3.306
71004.000			13.224			-3.306
71104.000			13.223			-3.306
71205.000			13.223			-3.306
