# Acquired on 08/01/2024 11:10:13 
# SPIDER: Creep_2mm_07714532B-1
# CREEP MEASUREMENT

# time [ms]		force [N]		stiffness [N/mm]
0.000			-4.091			-2.045
101.000			-5.272			-2.636
200.000			-6.023			-3.012
301.000			-5.997			-2.998
402.000			-5.967			-2.984
500.000			-5.946			-2.973
600.000			-5.928			-2.964
701.000			-5.914			-2.957
800.000			-5.901			-2.950
900.000			-5.889			-2.944
1002.000			-5.870			-2.935
1101.000			-5.861			-2.931
1200.000			-5.853			-2.927
1301.000			-5.846			-2.923
1400.000			-5.839			-2.919
1500.000			-5.833			-2.916
1601.000			-5.827			-2.914
1700.000			-5.818			-2.909
1801.000			-5.813			-2.906
1902.000			-5.807			-2.904
2000.000			-5.803			-2.901
2100.000			-5.799			-2.899
2201.000			-5.795			-2.898
2300.000			-5.791			-2.896
2401.000			-5.784			-2.892
2501.000			-5.780			-2.890
2601.000			-5.776			-2.888
2701.000			-5.772			-2.886
2800.000			-5.769			-2.885
2900.000			-5.767			-2.884
3001.000			-5.764			-2.882
3100.000			-5.761			-2.881
3200.000			-5.756			-2.878
3302.000			-5.754			-2.877
3401.000			-5.751			-2.876
3500.000			-5.749			-2.874
3601.000			-5.746			-2.873
3700.000			-5.745			-2.872
3800.000			-5.743			-2.871
3901.000			-5.738			-2.869
4001.000			-5.736			-2.868
4101.000			-5.733			-2.867
4201.000			-5.731			-2.865
4300.000			-5.729			-2.864
4400.000			-5.727			-2.864
4501.000			-5.725			-2.863
4600.000			-5.722			-2.861
4700.000			-5.721			-2.860
4802.000			-5.719			-2.859
4901.000			-5.716			-2.858
5000.000			-5.715			-2.857
5101.000			-5.713			-2.856
5200.000			-5.711			-2.856
5300.000			-5.709			-2.854
5401.000			-5.707			-2.853
5501.000			-5.705			-2.852
5602.000			-5.704			-2.852
5701.000			-5.703			-2.852
5800.000			-5.701			-2.851
5901.000			-5.701			-2.850
6000.000			-5.699			-2.849
6100.000			-5.696			-2.848
6201.000			-5.694			-2.847
6301.000			-5.693			-2.847
6401.000			-5.692			-2.846
6501.000			-5.691			-2.846
6600.000			-5.690			-2.845
6700.000			-5.689			-2.845
6801.000			-5.686			-2.843
6900.000			-5.684			-2.842
7000.000			-5.683			-2.842
7102.000			-5.682			-2.841
7201.000			-5.680			-2.840
7300.000			-5.679			-2.840
7401.000			-5.679			-2.840
7500.000			-5.677			-2.839
7600.000			-5.676			-2.838
7701.000			-5.675			-2.837
7801.000			-5.673			-2.837
7901.000			-5.672			-2.836
8001.000			-5.671			-2.836
8100.000			-5.671			-2.835
8200.000			-5.670			-2.835
8301.000			-5.667			-2.833
8400.000			-5.666			-2.833
8500.000			-5.665			-2.833
8602.000			-5.664			-2.832
8701.000			-5.663			-2.832
8801.000			-5.663			-2.831
8900.000			-5.662			-2.831
9000.000			-5.661			-2.831
9101.000			-5.660			-2.830
9200.000			-5.658			-2.829
9300.000			-5.657			-2.828
9402.000			-5.656			-2.828
9501.000			-5.655			-2.828
9600.000			-5.655			-2.827
9701.000			-5.653			-2.827
9800.000			-5.652			-2.826
9900.000			-5.652			-2.826
10001.000			-5.651			-2.826
10101.000			-5.650			-2.825
10201.000			-5.649			-2.824
10301.000			-5.648			-2.824
10400.000			-5.647			-2.823
10500.000			-5.646			-2.823
10601.000			-5.646			-2.823
10700.000			-5.645			-2.823
10800.000			-5.644			-2.822
10902.000			-5.642			-2.821
11001.000			-5.642			-2.821
11100.000			-5.641			-2.820
11201.000			-5.640			-2.820
11300.000			-5.640			-2.820
11400.000			-5.638			-2.819
11501.000			-5.638			-2.819
11600.000			-5.637			-2.819
11701.000			-5.638			-2.819
11802.000			-5.637			-2.819
11900.000			-5.634			-2.817
12001.000			-5.634			-2.817
12100.000			-5.634			-2.817
12200.000			-5.633			-2.817
12301.000			-5.632			-2.816
12400.000			-5.631			-2.816
12501.000			-5.631			-2.815
12602.000			-5.629			-2.814
12700.000			-5.628			-2.814
12800.000			-5.628			-2.814
12901.000			-5.628			-2.814
13000.000			-5.628			-2.814
13100.000			-5.628			-2.814
13201.000			-5.626			-2.813
13301.000			-5.624			-2.812
13401.000			-5.624			-2.812
13501.000			-5.624			-2.812
13600.000			-5.623			-2.812
13700.000			-5.622			-2.811
13801.000			-5.621			-2.811
13900.000			-5.621			-2.811
14000.000			-5.621			-2.810
14102.000			-5.619			-2.810
14201.000			-5.620			-2.810
14300.000			-5.619			-2.810
14401.000			-5.618			-2.809
14500.000			-5.616			-2.808
14600.000			-5.617			-2.808
14701.000			-5.615			-2.807
14801.000			-5.615			-2.807
14901.000			-5.614			-2.807
15001.000			-5.614			-2.807
15100.000			-5.612			-2.806
15201.000			-5.612			-2.806
15300.000			-5.612			-2.806
15400.000			-5.611			-2.806
15501.000			-5.611			-2.806
15601.000			-5.610			-2.805
15701.000			-5.609			-2.805
15801.000			-5.609			-2.805
15900.000			-5.608			-2.804
16000.000			-5.608			-2.804
16101.000			-5.608			-2.804
16200.000			-5.607			-2.804
16300.000			-5.607			-2.803
16402.000			-5.606			-2.803
16501.000			-5.604			-2.802
16600.000			-5.603			-2.802
16701.000			-5.604			-2.802
16800.000			-5.604			-2.802
16900.000			-5.603			-2.802
17001.000			-5.601			-2.801
17100.000			-5.602			-2.801
17201.000			-5.602			-2.801
17302.000			-5.602			-2.801
17400.000			-5.601			-2.800
17500.000			-5.599			-2.799
17601.000			-5.599			-2.800
17700.000			-5.599			-2.799
17800.000			-5.598			-2.799
17901.000			-5.598			-2.799
18001.000			-5.597			-2.799
18101.000			-5.596			-2.798
18201.000			-5.594			-2.797
18300.000			-5.595			-2.797
18401.000			-5.596			-2.798
18500.000			-5.594			-2.797
18600.000			-5.594			-2.797
18701.000			-5.595			-2.797
18801.000			-5.594			-2.797
18901.000			-5.593			-2.796
19001.000			-5.592			-2.796
19100.000			-5.591			-2.796
19200.000			-5.592			-2.796
19301.000			-5.591			-2.795
19400.000			-5.589			-2.795
19500.000			-5.589			-2.795
19602.000			-5.589			-2.794
19701.000			-5.588			-2.794
19800.000			-5.588			-2.794
19901.000			-5.588			-2.794
20000.000			-5.586			-2.793
20100.000			-5.587			-2.794
20201.000			-5.588			-2.794
20300.000			-5.586			-2.793
20401.000			-5.585			-2.792
20502.000			-5.585			-2.793
20600.000			-5.584			-2.792
20700.000			-5.585			-2.792
20801.000			-5.585			-2.792
20900.000			-5.584			-2.792
21000.000			-5.583			-2.792
21101.000			-5.583			-2.791
21201.000			-5.581			-2.791
21301.000			-5.581			-2.790
21401.000			-5.582			-2.791
21500.000			-5.582			-2.791
21601.000			-5.580			-2.790
21700.000			-5.579			-2.789
21800.000			-5.579			-2.789
21901.000			-5.579			-2.790
22001.000			-5.579			-2.789
22101.000			-5.577			-2.789
22201.000			-5.577			-2.789
22300.000			-5.577			-2.788
22400.000			-5.577			-2.788
22501.000			-5.576			-2.788
22600.000			-5.576			-2.788
22700.000			-5.575			-2.788
22802.000			-5.575			-2.787
22901.000			-5.574			-2.787
23000.000			-5.573			-2.787
23101.000			-5.573			-2.787
23200.000			-5.573			-2.787
23300.000			-5.573			-2.786
23401.000			-5.572			-2.786
23500.000			-5.573			-2.786
23601.000			-5.572			-2.786
23702.000			-5.572			-2.786
23800.000			-5.572			-2.786
23900.000			-5.570			-2.785
24001.000			-5.569			-2.785
24100.000			-5.569			-2.785
24200.000			-5.569			-2.785
24301.000			-5.569			-2.785
24401.000			-5.569			-2.784
24501.000			-5.568			-2.784
24601.000			-5.567			-2.784
24700.000			-5.567			-2.784
24801.000			-5.567			-2.784
24900.000			-5.567			-2.784
25000.000			-5.566			-2.783
25101.000			-5.565			-2.783
25201.000			-5.565			-2.782
25301.000			-5.565			-2.783
25401.000			-5.564			-2.782
25500.000			-5.564			-2.782
25600.000			-5.564			-2.782
25701.000			-5.563			-2.782
25800.000			-5.564			-2.782
25900.000			-5.563			-2.782
26002.000			-5.562			-2.781
26101.000			-5.562			-2.781
26200.000			-5.561			-2.781
26301.000			-5.561			-2.781
26400.000			-5.561			-2.780
26500.000			-5.561			-2.781
26601.000			-5.561			-2.780
26701.000			-5.560			-2.780
26801.000			-5.559			-2.779
26902.000			-5.558			-2.779
27000.000			-5.559			-2.779
27100.000			-5.559			-2.779
27201.000			17.458			8.729
27300.000			-193.234			-96.617
27400.000			-5.557			-2.779
27501.000			-5.557			-2.779
27601.000			-5.556			-2.778
27701.000			-5.556			-2.778
27801.000			-5.555			-2.778
27900.000			-5.555			-2.777
28001.000			-5.555			-2.777
28100.000			-5.554			-2.777
28200.000			-5.555			-2.777
28301.000			-5.555			-2.777
28401.000			-5.554			-2.777
28501.000			-5.553			-2.776
28601.000			-5.552			-2.776
28700.000			-5.552			-2.776
28800.000			-5.552			-2.776
28901.000			-5.552			-2.776
29000.000			-5.552			-2.776
29100.000			-5.551			-2.776
29202.000			-5.551			-2.776
29301.000			-5.550			-2.775
29400.000			-5.551			-2.775
29501.000			-5.550			-2.775
29600.000			-5.549			-2.774
29700.000			-5.548			-2.774
29801.000			-5.548			-2.774
29900.000			-5.549			-2.774
30001.000			-5.547			-2.774
30102.000			-5.547			-2.774
30200.000			-5.546			-2.773
30300.000			-5.546			-2.773
30401.000			-5.546			-2.773
30500.000			-5.546			-2.773
30600.000			-5.546			-2.773
30702.000			-5.545			-2.773
30801.000			-5.545			-2.772
30900.000			-5.546			-2.773
31001.000			-5.545			-2.773
31100.000			-5.545			-2.772
31201.000			-5.544			-2.772
31300.000			-5.542			-2.771
31400.000			-5.544			-2.772
31502.000			-5.543			-2.772
31601.000			-5.542			-2.771
31700.000			-5.542			-2.771
31801.000			-5.541			-2.770
31900.000			-5.540			-2.770
32000.000			-5.540			-2.770
32101.000			-5.540			-2.770
32200.000			-5.540			-2.770
32301.000			-5.540			-2.770
32402.000			-5.539			-2.770
32500.000			-5.539			-2.769
32600.000			-5.538			-2.769
32701.000			-5.538			-2.769
32800.000			-5.539			-2.769
32900.000			-5.538			-2.769
33001.000			-5.539			-2.769
33101.000			-5.537			-2.768
33201.000			-5.536			-2.768
33301.000			-5.537			-2.768
33400.000			-5.537			-2.768
33500.000			-5.537			-2.769
33601.000			-5.536			-2.768
33700.000			-5.536			-2.768
33800.000			-5.534			-2.767
33902.000			-5.536			-2.768
34001.000			-5.536			-2.768
34100.000			-5.534			-2.767
34201.000			-5.534			-2.767
34300.000			-5.534			-2.767
34401.000			-5.533			-2.766
34500.000			-5.532			-2.766
34601.000			-5.533			-2.766
34702.000			-5.531			-2.766
34800.000			-5.532			-2.766
34900.000			-5.532			-2.766
35001.000			-5.532			-2.766
35100.000			-5.531			-2.766
35200.000			-5.530			-2.765
35301.000			-5.531			-2.765
35401.000			-5.530			-2.765
35501.000			-5.530			-2.765
35601.000			-5.529			-2.765
35700.000			-5.530			-2.765
35800.000			-5.530			-2.765
35901.000			-5.529			-2.764
36000.000			-5.528			-2.764
36100.000			-5.529			-2.764
36202.000			-5.529			-2.764
36301.000			-5.528			-2.764
36400.000			-5.527			-2.763
36501.000			-5.526			-2.763
36600.000			-5.528			-2.764
36700.000			-5.526			-2.763
36801.000			-5.526			-2.763
36900.000			-5.525			-2.763
37001.000			-5.525			-2.763
37102.000			-5.525			-2.762
37200.000			-5.525			-2.762
37300.000			-5.525			-2.763
37401.000			-5.526			-2.763
37500.000			-5.525			-2.762
37601.000			-5.523			-2.762
37700.000			-5.523			-2.762
37801.000			-5.524			-2.762
37902.000			-5.523			-2.761
38000.000			-5.522			-2.761
38100.000			-5.523			-2.762
38201.000			-5.522			-2.761
38300.000			-5.522			-2.761
38400.000			-5.522			-2.761
38502.000			-5.521			-2.761
38601.000			-5.521			-2.760
38701.000			-5.520			-2.760
38801.000			-5.521			-2.761
38900.000			-5.520			-2.760
39000.000			-5.519			-2.759
39101.000			-5.519			-2.760
39200.000			-5.520			-2.760
39300.000			-5.520			-2.760
39402.000			-5.519			-2.760
39501.000			-5.519			-2.760
39600.000			-5.519			-2.759
39701.000			-5.518			-2.759
39800.000			-5.517			-2.758
39900.000			-5.517			-2.759
40001.000			-5.518			-2.759
40101.000			-5.517			-2.759
40201.000			-5.516			-2.758
40301.000			-5.516			-2.758
40400.000			-5.516			-2.758
40500.000			-5.516			-2.758
40601.000			-5.516			-2.758
40700.000			-5.516			-2.758
40801.000			-5.515			-2.757
40901.000			-5.515			-2.757
41001.000			-5.515			-2.757
41101.000			-5.514			-2.757
41200.000			-5.514			-2.757
41300.000			-5.514			-2.757
41401.000			-5.513			-2.757
41500.000			-5.513			-2.756
41600.000			-5.513			-2.757
41702.000			-5.513			-2.756
41801.000			-5.513			-2.757
41900.000			-5.512			-2.756
42001.000			-5.512			-2.756
42100.000			-5.510			-2.755
42200.000			-5.511			-2.755
42301.000			-5.510			-2.755
42400.000			-5.509			-2.755
42501.000			-5.510			-2.755
42602.000			-5.511			-2.755
42700.000			-5.510			-2.755
42800.000			-5.509			-2.754
42901.000			-5.509			-2.754
43000.000			-5.509			-2.754
43100.000			-5.508			-2.754
43201.000			-5.508			-2.754
43301.000			-5.508			-2.754
43401.000			-5.508			-2.754
43501.000			-5.507			-2.753
43600.000			-5.507			-2.754
43700.000			-5.508			-2.754
43801.000			-5.508			-2.754
43900.000			-5.508			-2.754
44001.000			-5.507			-2.753
44101.000			-5.506			-2.753
44201.000			-5.506			-2.753
44301.000			-5.506			-2.753
44400.000			-5.505			-2.753
44500.000			-5.504			-2.752
44601.000			-5.504			-2.752
44700.000			-5.504			-2.752
44801.000			-5.505			-2.752
44902.000			-5.504			-2.752
45000.000			-5.503			-2.752
45100.000			-5.503			-2.752
45201.000			-5.503			-2.752
45300.000			-5.503			-2.752
45400.000			-5.503			-2.752
45501.000			-5.504			-2.752
45601.000			-5.503			-2.752
45701.000			-5.502			-2.751
45801.000			-5.501			-2.751
45900.000			-5.501			-2.751
46000.000			-5.501			-2.750
46101.000			-5.501			-2.751
46200.000			-5.502			-2.751
46300.000			-5.501			-2.750
46402.000			-5.500			-2.750
46501.000			-5.501			-2.750
46600.000			-5.500			-2.750
46701.000			-5.500			-2.750
46800.000			-5.500			-2.750
46900.000			-5.499			-2.749
47001.000			-5.499			-2.750
47100.000			-5.499			-2.750
47202.000			-5.499			-2.749
47301.000			-5.498			-2.749
47400.000			-5.498			-2.749
47501.000			-5.498			-2.749
47600.000			-5.498			-2.749
47700.000			-5.497			-2.749
47801.000			-5.497			-2.748
47900.000			-5.496			-2.748
48001.000			-5.496			-2.748
48102.000			-5.497			-2.748
48200.000			-5.496			-2.748
48300.000			-5.497			-2.748
48401.000			-5.496			-2.748
48500.000			-5.496			-2.748
48600.000			-5.495			-2.748
48701.000			-5.495			-2.747
48801.000			-5.494			-2.747
48901.000			-5.494			-2.747
49001.000			-5.494			-2.747
49100.000			-5.494			-2.747
49200.000			-5.493			-2.746
49301.000			-5.492			-2.746
49400.000			-5.493			-2.746
49500.000			-5.493			-2.746
49602.000			-5.493			-2.747
49701.000			-5.493			-2.746
49800.000			-5.492			-2.746
49901.000			-5.493			-2.746
50000.000			-5.492			-2.746
50100.000			-5.491			-2.746
50201.000			-5.491			-2.745
50300.000			-5.491			-2.746
50402.000			-5.491			-2.746
50501.000			-5.491			-2.745
50600.000			-5.490			-2.745
50701.000			-5.491			-2.745
50800.000			-5.490			-2.745
50900.000			-5.489			-2.745
51001.000			-5.489			-2.745
51100.000			-5.489			-2.745
51201.000			-5.490			-2.745
51302.000			-5.489			-2.745
51400.000			-5.489			-2.744
51500.000			-5.489			-2.744
51601.000			-5.488			-2.744
51700.000			-5.487			-2.744
51800.000			-5.487			-2.743
51901.000			-5.487			-2.744
52001.000			-5.488			-2.744
52101.000			-5.487			-2.744
52201.000			-5.486			-2.743
52300.000			-5.486			-2.743
52400.000			-5.485			-2.743
52501.000			-5.485			-2.742
52600.000			-5.485			-2.743
52700.000			-5.486			-2.743
52802.000			-5.485			-2.743
52901.000			-5.486			-2.743
53000.000			-5.486			-2.743
53101.000			-5.485			-2.742
53200.000			-5.486			-2.743
53300.000			-5.486			-2.743
53401.000			-5.484			-2.742
53500.000			-5.484			-2.742
53602.000			-5.483			-2.742
53701.000			-5.484			-2.742
53800.000			-5.484			-2.742
53901.000			-5.483			-2.742
54000.000			-5.483			-2.742
54100.000			-5.483			-2.741
54201.000			-5.482			-2.741
54300.000			-5.482			-2.741
54401.000			-5.482			-2.741
54502.000			-5.482			-2.741
54600.000			-5.481			-2.741
54700.000			-5.482			-2.741
54801.000			-5.482			-2.741
54900.000			-5.481			-2.741
55000.000			-5.481			-2.740
55101.000			-5.481			-2.741
55201.000			-5.481			-2.741
55301.000			-5.481			-2.740
55401.000			-5.481			-2.740
55500.000			-5.481			-2.740
55600.000			-5.481			-2.741
55701.000			-5.481			-2.740
55800.000			-5.480			-2.740
55900.000			-5.479			-2.740
56002.000			-5.480			-2.740
56101.000			-5.478			-2.739
56200.000			-5.478			-2.739
56301.000			-5.478			-2.739
56400.000			-5.478			-2.739
56500.000			-5.478			-2.739
56601.000			-5.477			-2.739
56700.000			-5.478			-2.739
56802.000			-5.477			-2.739
56901.000			-5.477			-2.738
57000.000			-5.477			-2.738
57101.000			-5.477			-2.738
57200.000			-5.477			-2.738
57300.000			-5.476			-2.738
57401.000			-5.475			-2.738
57500.000			-5.476			-2.738
57600.000			-5.475			-2.738
57702.000			-5.476			-2.738
57801.000			-5.476			-2.738
57900.000			-5.476			-2.738
58001.000			-5.476			-2.738
58100.000			-5.475			-2.737
58200.000			-5.475			-2.737
58301.000			-5.475			-2.737
58400.000			-5.475			-2.737
58501.000			-5.475			-2.738
58602.000			-5.475			-2.737
58700.000			-5.474			-2.737
58800.000			-5.474			-2.737
58901.000			-5.474			-2.737
59000.000			-5.473			-2.737
59100.000			-5.474			-2.737
59201.000			-5.474			-2.737
59301.000			-5.474			-2.737
59401.000			-5.473			-2.736
59501.000			-5.472			-2.736
59600.000			-5.473			-2.736
59700.000			-5.472			-2.736
59801.000			-5.472			-2.736
59900.000			-5.473			-2.736
60001.000			-5.472			-2.736
60101.000			-5.471			-2.736
60201.000			-5.472			-2.736
60301.000			-5.472			-2.736
60400.000			-5.472			-2.736
60500.000			-5.471			-2.736
60601.000			-5.472			-2.736
60700.000			-5.472			-2.736
60800.000			-5.471			-2.736
60902.000			-5.471			-2.735
61001.000			-5.470			-2.735
61100.000			-5.470			-2.735
61201.000			-5.470			-2.735
61300.000			-5.470			-2.735
61400.000			-5.470			-2.735
61501.000			-5.471			-2.735
61600.000			-5.469			-2.735
61701.000			-5.470			-2.735
61802.000			-5.469			-2.734
61900.000			-5.469			-2.734
62000.000			-5.469			-2.735
62101.000			-5.470			-2.735
62200.000			-5.469			-2.734
62300.000			-5.467			-2.734
62402.000			-5.468			-2.734
62501.000			-5.468			-2.734
62601.000			-5.469			-2.734
62701.000			-5.469			-2.735
62800.000			-5.468			-2.734
62900.000			-5.467			-2.734
63001.000			-5.467			-2.733
63100.000			-5.467			-2.734
63201.000			-5.468			-2.734
63301.000			-5.468			-2.734
63401.000			-5.467			-2.734
63501.000			-5.468			-2.734
63600.000			-5.467			-2.734
63700.000			-5.467			-2.733
63801.000			-5.466			-2.733
63900.000			-5.466			-2.733
64000.000			-5.466			-2.733
64102.000			-5.466			-2.733
64201.000			-5.465			-2.733
64300.000			-5.465			-2.733
64401.000			-5.465			-2.733
64500.000			-5.465			-2.733
64600.000			-5.464			-2.732
64701.000			-5.464			-2.732
64800.000			-5.464			-2.732
64901.000			-5.463			-2.732
65002.000			-5.464			-2.732
65100.000			-5.464			-2.732
65200.000			-5.462			-2.731
65301.000			-5.465			-2.732
65400.000			-5.465			-2.733
65500.000			-5.463			-2.732
65601.000			-5.463			-2.732
65701.000			-5.464			-2.732
65801.000			-5.464			-2.732
65901.000			-5.463			-2.732
66000.000			-5.462			-2.731
66100.000			-5.463			-2.731
66201.000			-5.463			-2.731
66300.000			-5.463			-2.731
66401.000			-5.462			-2.731
66501.000			-5.462			-2.731
66601.000			-5.462			-2.731
66701.000			-5.461			-2.730
66800.000			-5.461			-2.730
66900.000			-5.461			-2.731
67001.000			-5.461			-2.731
67100.000			-5.461			-2.730
67200.000			-5.461			-2.730
67302.000			-5.461			-2.731
67401.000			-5.461			-2.730
67500.000			-5.461			-2.730
67601.000			-5.461			-2.730
67700.000			-5.461			-2.730
67800.000			-5.460			-2.730
67901.000			-5.460			-2.730
68000.000			-5.459			-2.730
68101.000			-5.460			-2.730
68202.000			-5.459			-2.729
68300.000			-5.460			-2.730
68400.000			-5.459			-2.730
68501.000			-5.458			-2.729
68600.000			-5.459			-2.730
68700.000			-5.459			-2.730
68801.000			-5.459			-2.730
68901.000			-5.459			-2.730
69001.000			-5.458			-2.729
69101.000			-5.458			-2.729
69200.000			-5.458			-2.729
69300.000			-5.458			-2.729
69401.000			-5.458			-2.729
69500.000			-5.458			-2.729
69601.000			-5.459			-2.730
69701.000			-5.457			-2.728
69801.000			-5.458			-2.729
69902.000			-5.459			-2.729
70000.000			-5.458			-2.729
70100.000			-5.458			-2.729
70201.000			-5.457			-2.729
70300.000			-5.457			-2.728
70400.000			-5.456			-2.728
70501.000			-5.457			-2.729
70601.000			-5.457			-2.729
70701.000			-5.456			-2.728
70801.000			-5.456			-2.728
70900.000			-5.456			-2.728
71000.000			-5.457			-2.728
71101.000			-5.456			-2.728
71200.000			-5.457			-2.729
