# Acquired on 10/01/2024 14:41:54 
# SPIDER: Creep_-5mm_07714532C-1
# CREEP MEASUREMENT

# time [ms]		force [N]		stiffness [N/mm]
0.000			5.519			-1.104
100.000			5.855			-1.171
200.000			5.963			-1.193
301.000			5.949			-1.190
401.000			5.919			-1.184
501.000			5.896			-1.179
601.000			5.877			-1.175
700.000			5.847			-1.169
800.000			5.834			-1.167
901.000			5.822			-1.164
1000.000			5.812			-1.162
1101.000			5.803			-1.161
1202.000			5.796			-1.159
1300.000			5.787			-1.157
1400.000			5.772			-1.154
1501.000			5.766			-1.153
1600.000			5.759			-1.152
1701.000			5.752			-1.150
1800.000			5.746			-1.149
1901.000			5.740			-1.148
2002.000			5.735			-1.147
2100.000			5.731			-1.146
2200.000			5.722			-1.144
2301.000			5.718			-1.144
2400.000			5.713			-1.143
2500.000			5.709			-1.142
2602.000			5.706			-1.141
2701.000			5.703			-1.141
2800.000			5.700			-1.140
2901.000			5.690			-1.138
3000.000			5.686			-1.137
3100.000			5.683			-1.137
3201.000			5.679			-1.136
3300.000			5.676			-1.135
3401.000			5.673			-1.135
3502.000			5.670			-1.134
3600.000			5.665			-1.133
3700.000			5.663			-1.133
3801.000			5.660			-1.132
3900.000			5.657			-1.131
4000.000			5.654			-1.131
4101.000			5.651			-1.130
4201.000			5.648			-1.130
4300.000			5.646			-1.129
4401.000			5.642			-1.128
4500.000			5.640			-1.128
4600.000			5.637			-1.127
4701.000			5.634			-1.127
4800.000			5.632			-1.126
4902.000			5.631			-1.126
5001.000			5.628			-1.126
5100.000			5.623			-1.125
5201.000			5.621			-1.124
5300.000			5.620			-1.124
5400.000			5.618			-1.124
5501.000			5.616			-1.123
5600.000			5.615			-1.123
5701.000			5.612			-1.122
5802.000			5.608			-1.122
5900.000			5.607			-1.121
6000.000			5.604			-1.121
6101.000			5.602			-1.120
6200.000			5.601			-1.120
6300.000			5.599			-1.120
6402.000			5.598			-1.120
6501.000			5.596			-1.119
6600.000			5.592			-1.118
6701.000			5.591			-1.118
6800.000			5.590			-1.118
6900.000			5.589			-1.118
7001.000			5.587			-1.117
7100.000			5.585			-1.117
7201.000			5.585			-1.117
7302.000			5.581			-1.116
7400.000			5.580			-1.116
7500.000			5.579			-1.116
7601.000			5.578			-1.116
7700.000			5.576			-1.115
7800.000			5.574			-1.115
7902.000			5.573			-1.115
8001.000			5.572			-1.114
8101.000			5.571			-1.114
8200.000			5.569			-1.114
8300.000			5.567			-1.113
8401.000			5.566			-1.113
8500.000			5.565			-1.113
8600.000			5.564			-1.113
8702.000			5.562			-1.112
8801.000			5.560			-1.112
8900.000			5.559			-1.112
9001.000			5.558			-1.112
9100.000			5.557			-1.111
9200.000			5.555			-1.111
9301.000			5.554			-1.111
9401.000			5.554			-1.111
9501.000			5.552			-1.110
9601.000			5.551			-1.110
9700.000			5.549			-1.110
9800.000			5.549			-1.110
9901.000			5.547			-1.109
10000.000			5.547			-1.109
10100.000			5.546			-1.109
10202.000			5.543			-1.109
10301.000			5.543			-1.109
10400.000			5.542			-1.108
10501.000			5.541			-1.108
10600.000			5.541			-1.108
10700.000			5.539			-1.108
10801.000			5.538			-1.108
10900.000			5.536			-1.107
11001.000			5.536			-1.107
11102.000			5.535			-1.107
11200.000			5.534			-1.107
11301.000			5.533			-1.107
11400.000			5.532			-1.106
11500.000			5.532			-1.106
11601.000			5.532			-1.106
11700.000			5.528			-1.106
11801.000			5.528			-1.106
11902.000			5.527			-1.105
12000.000			5.525			-1.105
12100.000			5.524			-1.105
12201.000			5.524			-1.105
12300.000			5.523			-1.105
12400.000			5.521			-1.104
12501.000			5.521			-1.104
12601.000			5.520			-1.104
12700.000			5.519			-1.104
12801.000			5.518			-1.104
12900.000			5.517			-1.103
13000.000			5.516			-1.103
13101.000			5.514			-1.103
13200.000			5.513			-1.103
13301.000			5.512			-1.102
13402.000			5.512			-1.102
13500.000			5.511			-1.102
13600.000			5.509			-1.102
13701.000			5.509			-1.102
13800.000			5.509			-1.102
13900.000			5.507			-1.101
14001.000			5.507			-1.101
14101.000			5.507			-1.101
14201.000			5.505			-1.101
14301.000			5.504			-1.101
14400.000			5.503			-1.101
14501.000			5.502			-1.100
14600.000			5.500			-1.100
14700.000			5.499			-1.100
14801.000			5.500			-1.100
14901.000			5.499			-1.100
15001.000			5.498			-1.100
15101.000			5.498			-1.100
15200.000			5.498			-1.100
15300.000			5.497			-1.099
15401.000			5.495			-1.099
15500.000			5.495			-1.099
15600.000			5.494			-1.099
15702.000			5.493			-1.099
15801.000			5.492			-1.098
15900.000			5.491			-1.098
16001.000			5.490			-1.098
16100.000			5.489			-1.098
16200.000			5.489			-1.098
16301.000			5.488			-1.098
16400.000			5.487			-1.097
16501.000			5.486			-1.097
16602.000			5.486			-1.097
16700.000			5.486			-1.097
16800.000			5.485			-1.097
16901.000			5.486			-1.097
17000.000			5.484			-1.097
17100.000			5.483			-1.097
17201.000			5.484			-1.097
17301.000			5.482			-1.096
17401.000			5.481			-1.096
17501.000			5.480			-1.096
17600.000			5.479			-1.096
17701.000			5.479			-1.096
17800.000			5.478			-1.096
17900.000			5.478			-1.096
18001.000			5.478			-1.096
18101.000			5.476			-1.095
18201.000			5.476			-1.095
18301.000			5.476			-1.095
18400.000			5.475			-1.095
18500.000			5.474			-1.095
18601.000			5.474			-1.095
18700.000			5.473			-1.095
18800.000			5.473			-1.095
18902.000			5.471			-1.094
19001.000			5.470			-1.094
19100.000			5.470			-1.094
19201.000			5.470			-1.094
19300.000			5.468			-1.094
19400.000			5.469			-1.094
19501.000			5.468			-1.094
19600.000			5.468			-1.094
19701.000			5.467			-1.093
19802.000			5.466			-1.093
19900.000			5.466			-1.093
20000.000			5.465			-1.093
20101.000			5.463			-1.093
20200.000			5.464			-1.093
20300.000			5.465			-1.093
20401.000			5.463			-1.093
20501.000			5.462			-1.092
20601.000			5.462			-1.092
20701.000			5.461			-1.092
20800.000			5.461			-1.092
20901.000			5.460			-1.092
21000.000			5.459			-1.092
21100.000			5.458			-1.092
21201.000			5.458			-1.092
21301.000			5.458			-1.092
21401.000			5.457			-1.091
21501.000			5.457			-1.091
21600.000			5.455			-1.091
21700.000			5.454			-1.091
21801.000			5.455			-1.091
21900.000			5.455			-1.091
22000.000			5.454			-1.091
22102.000			5.453			-1.091
22201.000			5.453			-1.091
22300.000			5.453			-1.091
22401.000			5.452			-1.090
22500.000			5.451			-1.090
22600.000			5.449			-1.090
22701.000			5.450			-1.090
22801.000			5.449			-1.090
22901.000			5.449			-1.090
23002.000			5.448			-1.090
23100.000			5.449			-1.090
23200.000			5.448			-1.090
23301.000			5.447			-1.089
23400.000			5.447			-1.089
23500.000			5.447			-1.089
23602.000			5.447			-1.089
23701.000			5.446			-1.089
23801.000			5.444			-1.089
23901.000			5.444			-1.089
24000.000			5.445			-1.089
24101.000			5.444			-1.089
24200.000			5.443			-1.089
24300.000			5.442			-1.088
24402.000			5.442			-1.088
24501.000			5.442			-1.088
24601.000			5.441			-1.088
24701.000			5.440			-1.088
24800.000			5.440			-1.088
24900.000			5.440			-1.088
25001.000			5.440			-1.088
25100.000			5.439			-1.088
25201.000			5.439			-1.088
25302.000			5.437			-1.087
25401.000			5.437			-1.087
25500.000			5.437			-1.087
25601.000			5.437			-1.087
25700.000			5.437			-1.087
25800.000			5.436			-1.087
25901.000			5.435			-1.087
26001.000			5.435			-1.087
26101.000			5.435			-1.087
26201.000			5.434			-1.087
26300.000			5.433			-1.087
26400.000			5.432			-1.086
26501.000			5.432			-1.086
26600.000			5.433			-1.087
26700.000			5.433			-1.087
26802.000			5.432			-1.086
26901.000			5.430			-1.086
27000.000			5.429			-1.086
27101.000			5.430			-1.086
27200.000			5.430			-1.086
27301.000			5.429			-1.086
27400.000			5.428			-1.086
27500.000			5.428			-1.086
27602.000			5.427			-1.085
27701.000			5.426			-1.085
27801.000			5.426			-1.085
27901.000			5.426			-1.085
28000.000			5.425			-1.085
28100.000			5.424			-1.085
28201.000			5.424			-1.085
28300.000			5.425			-1.085
28401.000			5.423			-1.085
28502.000			5.423			-1.085
28601.000			5.422			-1.084
28700.000			5.422			-1.084
28801.000			5.422			-1.084
28900.000			5.421			-1.084
29000.000			5.422			-1.084
29101.000			5.422			-1.084
29201.000			5.420			-1.084
29301.000			5.421			-1.084
29401.000			5.421			-1.084
29500.000			5.420			-1.084
29600.000			5.419			-1.084
29701.000			5.417			-1.083
29800.000			5.418			-1.084
29900.000			5.418			-1.084
30002.000			5.417			-1.083
30101.000			5.417			-1.083
30200.000			5.415			-1.083
30301.000			5.415			-1.083
30400.000			5.416			-1.083
30501.000			5.415			-1.083
30600.000			5.414			-1.083
30700.000			5.415			-1.083
30802.000			5.413			-1.083
30901.000			5.413			-1.083
31000.000			5.413			-1.083
31101.000			5.412			-1.082
31200.000			5.412			-1.082
31300.000			5.412			-1.082
31401.000			5.411			-1.082
31501.000			5.411			-1.082
31601.000			5.411			-1.082
31701.000			5.411			-1.082
31800.000			5.410			-1.082
31900.000			5.410			-1.082
32001.000			5.410			-1.082
32100.000			5.409			-1.082
32200.000			5.408			-1.082
32302.000			5.408			-1.082
32401.000			5.407			-1.081
32500.000			5.407			-1.081
32601.000			5.408			-1.082
32700.000			5.407			-1.081
32800.000			5.406			-1.081
32901.000			5.406			-1.081
33000.000			5.406			-1.081
33101.000			5.406			-1.081
33202.000			5.405			-1.081
33300.000			5.405			-1.081
33400.000			5.406			-1.081
33501.000			5.405			-1.081
33600.000			5.403			-1.081
33701.000			5.403			-1.081
33800.000			5.403			-1.081
33901.000			5.404			-1.081
34002.000			5.403			-1.081
34100.000			5.402			-1.080
34200.000			5.401			-1.080
34301.000			5.402			-1.080
34400.000			5.401			-1.080
34500.000			5.400			-1.080
34602.000			5.400			-1.080
34701.000			5.400			-1.080
34800.000			5.400			-1.080
34901.000			5.399			-1.080
35000.000			5.398			-1.080
35100.000			5.398			-1.080
35201.000			5.398			-1.080
35300.000			5.398			-1.080
35401.000			5.397			-1.079
35502.000			5.397			-1.079
35601.000			5.397			-1.079
35700.000			5.397			-1.079
35801.000			5.396			-1.079
35900.000			5.395			-1.079
36000.000			5.394			-1.079
36101.000			5.395			-1.079
36201.000			5.394			-1.079
36301.000			5.394			-1.079
36402.000			5.395			-1.079
36500.000			5.394			-1.079
36600.000			5.394			-1.079
36701.000			5.393			-1.079
36800.000			5.392			-1.078
36901.000			5.392			-1.078
37000.000			5.392			-1.078
37101.000			5.392			-1.078
37202.000			5.391			-1.078
37300.000			5.390			-1.078
37400.000			5.390			-1.078
37501.000			5.389			-1.078
37600.000			5.390			-1.078
37700.000			5.390			-1.078
37801.000			5.389			-1.078
37901.000			5.389			-1.078
38001.000			5.389			-1.078
38101.000			5.388			-1.078
38200.000			5.389			-1.078
38300.000			5.389			-1.078
38401.000			5.388			-1.078
38500.000			5.387			-1.077
38600.000			5.387			-1.077
38702.000			5.386			-1.077
38801.000			5.386			-1.077
38900.000			5.386			-1.077
39001.000			5.386			-1.077
39100.000			5.385			-1.077
39200.000			5.385			-1.077
39301.000			5.385			-1.077
39400.000			5.385			-1.077
39501.000			5.384			-1.077
39602.000			5.383			-1.077
39700.000			5.383			-1.077
39800.000			5.383			-1.077
39901.000			5.383			-1.077
40000.000			5.383			-1.077
40101.000			5.383			-1.077
40200.000			5.382			-1.076
40301.000			5.381			-1.076
40402.000			5.382			-1.076
40500.000			5.380			-1.076
40600.000			5.380			-1.076
40701.000			5.381			-1.076
40800.000			5.380			-1.076
40900.000			5.379			-1.076
41001.000			5.379			-1.076
41101.000			5.379			-1.076
41201.000			5.379			-1.076
41301.000			5.379			-1.076
41400.000			5.379			-1.076
41500.000			5.377			-1.075
41601.000			5.378			-1.076
41700.000			5.378			-1.076
41800.000			5.378			-1.076
41902.000			5.377			-1.075
42001.000			5.377			-1.075
42100.000			5.377			-1.075
42201.000			5.376			-1.075
42300.000			5.377			-1.075
42400.000			5.376			-1.075
42501.000			5.375			-1.075
42600.000			5.375			-1.075
42701.000			5.374			-1.075
42802.000			5.374			-1.075
42900.000			5.374			-1.075
43000.000			5.374			-1.075
43101.000			5.373			-1.075
43200.000			5.373			-1.075
43301.000			5.373			-1.075
43400.000			5.372			-1.074
43501.000			5.371			-1.074
43602.000			5.371			-1.074
43700.000			5.371			-1.074
43800.000			5.370			-1.074
43901.000			5.371			-1.074
44000.000			5.370			-1.074
44100.000			5.370			-1.074
44202.000			5.370			-1.074
44301.000			5.369			-1.074
44400.000			5.368			-1.074
44501.000			5.369			-1.074
44600.000			5.369			-1.074
44700.000			5.367			-1.073
44801.000			5.368			-1.074
44900.000			5.366			-1.073
45000.000			5.365			-1.073
45102.000			5.366			-1.073
45201.000			5.366			-1.073
45300.000			5.366			-1.073
45401.000			5.366			-1.073
45500.000			5.365			-1.073
45600.000			5.365			-1.073
45701.000			5.365			-1.073
45800.000			5.364			-1.073
45901.000			5.364			-1.073
46002.000			5.365			-1.073
46100.000			5.364			-1.073
46200.000			5.364			-1.073
46301.000			5.364			-1.073
46400.000			5.362			-1.072
46501.000			5.362			-1.072
46600.000			5.362			-1.072
46701.000			5.362			-1.072
46802.000			5.361			-1.072
46900.000			5.361			-1.072
47000.000			5.362			-1.072
47101.000			5.361			-1.072
47200.000			5.361			-1.072
47300.000			5.359			-1.072
47401.000			5.359			-1.072
47501.000			5.359			-1.072
47601.000			5.359			-1.072
47701.000			5.358			-1.072
47800.000			5.358			-1.072
47900.000			5.358			-1.072
48001.000			5.358			-1.072
48100.000			5.357			-1.071
48200.000			5.357			-1.071
48302.000			5.357			-1.071
48401.000			5.357			-1.071
48500.000			5.356			-1.071
48601.000			5.357			-1.071
48700.000			5.356			-1.071
48800.000			5.357			-1.071
48901.000			5.356			-1.071
49000.000			5.356			-1.071
49101.000			5.355			-1.071
49202.000			5.354			-1.071
49300.000			5.354			-1.071
49400.000			5.355			-1.071
49501.000			5.354			-1.071
49600.000			5.354			-1.071
49701.000			5.354			-1.071
49800.000			5.353			-1.071
49901.000			5.353			-1.071
50002.000			5.353			-1.071
50100.000			5.353			-1.071
50200.000			5.353			-1.071
50301.000			5.353			-1.071
50400.000			5.352			-1.070
50500.000			5.352			-1.070
50601.000			5.352			-1.070
50701.000			5.352			-1.070
50801.000			5.351			-1.070
50901.000			5.351			-1.070
51000.000			5.350			-1.070
51100.000			5.351			-1.070
51201.000			5.351			-1.070
51300.000			5.351			-1.070
51401.000			5.351			-1.070
51502.000			5.350			-1.070
51600.000			5.350			-1.070
51700.000			5.350			-1.070
51801.000			5.351			-1.070
51900.000			5.350			-1.070
52000.000			5.349			-1.070
52101.000			5.350			-1.070
52201.000			5.350			-1.070
52301.000			5.350			-1.070
52401.000			5.350			-1.070
52500.000			5.349			-1.070
52600.000			5.348			-1.070
52701.000			5.349			-1.070
52800.000			5.351			-1.070
52901.000			5.350			-1.070
53001.000			5.349			-1.070
53101.000			5.348			-1.070
53201.000			5.349			-1.070
53300.000			5.348			-1.070
53400.000			5.347			-1.069
53501.000			5.348			-1.070
53600.000			5.349			-1.070
53700.000			5.349			-1.070
53802.000			5.348			-1.070
53901.000			5.346			-1.069
54000.000			5.346			-1.069
54101.000			5.347			-1.069
54200.000			5.347			-1.069
54300.000			5.346			-1.069
54401.000			5.346			-1.069
54500.000			5.346			-1.069
54601.000			5.346			-1.069
54702.000			5.346			-1.069
54800.000			5.344			-1.069
54900.000			5.345			-1.069
55001.000			5.346			-1.069
55100.000			5.346			-1.069
55200.000			5.345			-1.069
55301.000			5.344			-1.069
55401.000			5.344			-1.069
55501.000			5.344			-1.069
55601.000			5.343			-1.069
55700.000			5.342			-1.068
55800.000			5.343			-1.069
55901.000			5.343			-1.069
56000.000			5.342			-1.068
56101.000			5.343			-1.069
56201.000			5.342			-1.068
56301.000			5.341			-1.068
56401.000			5.342			-1.068
56500.000			5.342			-1.068
56600.000			5.341			-1.068
56701.000			5.341			-1.068
56800.000			5.342			-1.068
56900.000			5.342			-1.068
57002.000			5.341			-1.068
57101.000			5.341			-1.068
57200.000			5.340			-1.068
57301.000			5.340			-1.068
57400.000			5.340			-1.068
57500.000			5.340			-1.068
57601.000			5.339			-1.068
57701.000			5.339			-1.068
57801.000			5.339			-1.068
57902.000			5.339			-1.068
58000.000			5.339			-1.068
58100.000			5.339			-1.068
58201.000			5.340			-1.068
58300.000			5.340			-1.068
58400.000			5.338			-1.068
58501.000			5.338			-1.068
58601.000			5.339			-1.068
58701.000			5.339			-1.068
58801.000			5.338			-1.068
58900.000			5.337			-1.067
59000.000			5.337			-1.067
59101.000			5.337			-1.067
59200.000			5.337			-1.067
59301.000			5.336			-1.067
59401.000			5.336			-1.067
59501.000			5.336			-1.067
59601.000			5.336			-1.067
59700.000			5.335			-1.067
59800.000			5.336			-1.067
59901.000			5.335			-1.067
60000.000			5.335			-1.067
60100.000			5.335			-1.067
60202.000			5.335			-1.067
60301.000			5.334			-1.067
60400.000			5.335			-1.067
60501.000			5.334			-1.067
60600.000			5.333			-1.067
60700.000			5.333			-1.067
60801.000			5.333			-1.067
60900.000			5.333			-1.067
61001.000			5.333			-1.067
61102.000			5.333			-1.067
61200.000			5.332			-1.066
61300.000			5.334			-1.067
61401.000			5.333			-1.067
61500.000			5.331			-1.066
61600.000			5.331			-1.066
61702.000			5.331			-1.066
61801.000			5.331			-1.066
61900.000			5.331			-1.066
62001.000			5.330			-1.066
62100.000			5.330			-1.066
62200.000			5.330			-1.066
62301.000			5.330			-1.066
62400.000			5.331			-1.066
62502.000			5.330			-1.066
62601.000			5.330			-1.066
62700.000			5.328			-1.066
62801.000			5.329			-1.066
62900.000			5.328			-1.066
63000.000			5.328			-1.066
63101.000			5.329			-1.066
63200.000			5.329			-1.066
63301.000			5.328			-1.066
63402.000			5.328			-1.066
63500.000			5.327			-1.065
63600.000			5.327			-1.065
63701.000			5.327			-1.065
63800.000			5.326			-1.065
63900.000			5.327			-1.065
64001.000			5.326			-1.065
64101.000			5.327			-1.065
64201.000			5.327			-1.065
64301.000			5.326			-1.065
64400.000			5.327			-1.065
64500.000			5.327			-1.065
64601.000			5.325			-1.065
64700.000			5.325			-1.065
64800.000			5.325			-1.065
64902.000			5.325			-1.065
65001.000			5.324			-1.065
65100.000			5.325			-1.065
65201.000			5.325			-1.065
65300.000			5.324			-1.065
65400.000			5.324			-1.065
65501.000			5.324			-1.065
65601.000			5.323			-1.065
65702.000			5.323			-1.065
65801.000			5.322			-1.064
65900.000			5.323			-1.065
66001.000			5.324			-1.065
66100.000			5.323			-1.065
66200.000			5.323			-1.065
66301.000			5.322			-1.064
66401.000			5.321			-1.064
66501.000			5.321			-1.064
66601.000			5.321			-1.064
66700.000			5.321			-1.064
66800.000			5.322			-1.064
66901.000			5.322			-1.064
67000.000			5.321			-1.064
67100.000			5.321			-1.064
67202.000			5.320			-1.064
67301.000			5.321			-1.064
67400.000			5.320			-1.064
67501.000			5.321			-1.064
67600.000			5.321			-1.064
67700.000			5.321			-1.064
67801.000			5.321			-1.064
67900.000			5.320			-1.064
68000.000			5.320			-1.064
68102.000			5.319			-1.064
68201.000			5.318			-1.064
68300.000			5.319			-1.064
68401.000			5.320			-1.064
68500.000			5.319			-1.064
68600.000			5.319			-1.064
68701.000			5.318			-1.064
68800.000			5.318			-1.064
68902.000			5.317			-1.063
69001.000			5.317			-1.063
69100.000			5.318			-1.064
69201.000			5.318			-1.064
69300.000			5.318			-1.064
69400.000			5.317			-1.063
69501.000			5.317			-1.063
69600.000			5.318			-1.064
69701.000			5.317			-1.063
69802.000			5.317			-1.063
69900.000			5.316			-1.063
70000.000			5.316			-1.063
70101.000			5.317			-1.063
70200.000			5.316			-1.063
70300.000			5.315			-1.063
70401.000			5.316			-1.063
70501.000			5.316			-1.063
70601.000			5.315			-1.063
70701.000			5.316			-1.063
70800.000			5.315			-1.063
70900.000			5.315			-1.063
71001.000			5.315			-1.063
71100.000			5.314			-1.063
71200.000			5.315			-1.063
71302.000			5.314			-1.063
71401.000			5.313			-1.063
71500.000			5.313			-1.063
71601.000			5.313			-1.063
71700.000			5.313			-1.063
71800.000			5.313			-1.063
71901.000			5.313			-1.063
72000.000			5.313			-1.063
72102.000			5.313			-1.063
72201.000			5.313			-1.063
72300.000			5.312			-1.062
72401.000			5.312			-1.062
72500.000			5.312			-1.062
72600.000			5.311			-1.062
72701.000			5.310			-1.062
72801.000			5.311			-1.062
72901.000			5.311			-1.062
73002.000			5.310			-1.062
73100.000			5.311			-1.062
73200.000			5.310			-1.062
73301.000			5.310			-1.062
73400.000			5.310			-1.062
73500.000			5.309			-1.062
73602.000			5.309			-1.062
73701.000			5.309			-1.062
73801.000			5.309			-1.062
73901.000			5.308			-1.062
