# Acquired on 26/01/2024 09:59:36 
# SPIDER: Creep_3mm_HM077x145x38AB-1
# CREEP MEASUREMENT

# time [ms]		force [N]		stiffness [N/mm]
0.000			-10.174			-3.391
104.000			-10.883			-3.628
205.000			-11.097			-3.699
304.000			-11.082			-3.694
404.000			-11.049			-3.683
505.000			-11.007			-3.669
604.000			-10.990			-3.663
704.000			-10.974			-3.658
804.000			-10.960			-3.653
904.000			-10.948			-3.649
1004.000			-10.936			-3.645
1105.000			-10.925			-3.642
1204.000			-10.907			-3.636
1303.000			-10.898			-3.633
1405.000			-10.889			-3.630
1504.000			-10.881			-3.627
1605.000			-10.873			-3.624
1704.000			-10.865			-3.622
1804.000			-10.859			-3.620
1905.000			-10.845			-3.615
2003.000			-10.839			-3.613
2104.000			-10.833			-3.611
2205.000			-10.827			-3.609
2304.000			-10.822			-3.607
2404.000			-10.817			-3.606
2504.000			-10.811			-3.604
2604.000			-10.806			-3.602
2704.000			-10.795			-3.598
2805.000			-10.792			-3.597
2904.000			-10.786			-3.595
3004.000			-10.781			-3.594
3105.000			-10.778			-3.593
3203.000			-10.773			-3.591
3304.000			-10.769			-3.590
3405.000			-10.760			-3.587
3504.000			-10.757			-3.586
3604.000			-10.754			-3.585
3704.000			-10.749			-3.583
3804.000			-10.745			-3.582
3904.000			-10.741			-3.580
4005.000			-10.738			-3.579
4104.000			-10.732			-3.577
4204.000			-10.728			-3.576
4305.000			-10.724			-3.575
4403.000			-10.721			-3.574
4504.000			-10.718			-3.573
4605.000			-10.714			-3.571
4704.000			-10.711			-3.570
4805.000			-10.706			-3.569
4903.000			-10.703			-3.568
5004.000			-10.700			-3.567
5105.000			-10.697			-3.566
5204.000			-10.694			-3.565
5304.000			-10.692			-3.564
5405.000			-10.689			-3.563
5504.000			-10.686			-3.562
5603.000			-10.680			-3.560
5705.000			-10.678			-3.559
5804.000			-10.675			-3.558
5904.000			-10.673			-3.558
6005.000			-10.671			-3.557
6103.000			-10.667			-3.556
6204.000			-10.665			-3.555
6305.000			-10.661			-3.554
6404.000			-10.659			-3.553
6504.000			-10.657			-3.552
6605.000			-10.654			-3.551
6704.000			-10.651			-3.550
6803.000			-10.650			-3.550
6905.000			-10.647			-3.549
7004.000			-10.643			-3.548
7104.000			-10.640			-3.547
7205.000			-10.639			-3.546
7304.000			-10.638			-3.546
7404.000			-10.635			-3.545
7504.000			-10.633			-3.544
7604.000			-10.631			-3.544
7704.000			-10.629			-3.543
7804.000			-10.625			-3.542
7904.000			-10.623			-3.541
8003.000			-10.621			-3.540
8104.000			-10.620			-3.540
8204.000			-10.617			-3.539
8305.000			-10.615			-3.538
8404.000			-10.614			-3.538
8504.000			-10.610			-3.537
8605.000			-10.608			-3.536
8703.000			-10.606			-3.535
8804.000			-10.605			-3.535
8905.000			-10.604			-3.535
9004.000			-10.602			-3.534
9104.000			-10.600			-3.533
9204.000			-10.596			-3.532
9304.000			-10.596			-3.532
9404.000			-10.594			-3.531
9505.000			-10.592			-3.531
9604.000			-10.590			-3.530
9704.000			-10.589			-3.530
9805.000			-10.586			-3.529
9903.000			-10.585			-3.528
10004.000			-10.582			-3.527
10105.000			-10.580			-3.527
10204.000			-10.579			-3.526
10304.000			-10.578			-3.526
10405.000			-10.576			-3.525
10504.000			-10.574			-3.525
10603.000			-10.573			-3.524
10705.000			-10.570			-3.523
10804.000			-10.568			-3.523
10904.000			-10.567			-3.522
11005.000			-10.566			-3.522
11103.000			-10.565			-3.522
11205.000			-10.564			-3.521
11304.000			-10.562			-3.521
11404.000			-10.559			-3.520
11505.000			-10.559			-3.520
11604.000			-10.557			-3.519
11704.000			-10.556			-3.519
11804.000			-10.554			-3.518
11904.000			-10.553			-3.518
12004.000			-10.551			-3.517
12105.000			-10.549			-3.516
12204.000			-10.547			-3.516
12304.000			-10.546			-3.515
12405.000			-10.544			-3.515
12503.000			-10.542			-3.514
12604.000			-10.542			-3.514
12705.000			-10.541			-3.514
12804.000			-10.541			-3.514
12904.000			-10.538			-3.513
13004.000			-10.537			-3.512
13104.000			-10.536			-3.512
13204.000			-10.534			-3.511
13305.000			-10.534			-3.511
13404.000			-10.532			-3.511
13504.000			-10.532			-3.511
13605.000			-10.530			-3.510
13703.000			-10.528			-3.509
13804.000			-10.526			-3.509
13905.000			-10.525			-3.508
14004.000			-10.524			-3.508
14104.000			-10.523			-3.508
14204.000			-10.523			-3.508
14304.000			-10.521			-3.507
14403.000			-10.519			-3.506
14504.000			-10.517			-3.506
14604.000			-10.516			-3.505
14705.000			-10.516			-3.505
14804.000			-10.515			-3.505
14903.000			-10.512			-3.504
15005.000			-10.511			-3.504
15104.000			-10.508			-3.503
15204.000			-10.508			-3.503
15305.000			-10.507			-3.502
15404.000			-10.506			-3.502
15504.000			-10.506			-3.502
15604.000			-10.505			-3.502
15704.000			-10.503			-3.501
15804.000			-10.501			-3.500
15905.000			-10.498			-3.499
16004.000			-10.497			-3.499
16104.000			-10.496			-3.499
16205.000			-10.495			-3.498
16304.000			-10.495			-3.498
16404.000			-10.494			-3.498
16505.000			-10.490			-3.497
16604.000			-10.489			-3.496
16704.000			-10.489			-3.496
16804.000			-10.489			-3.496
16904.000			-10.488			-3.496
17003.000			-10.486			-3.495
17105.000			-10.486			-3.495
17204.000			-10.483			-3.494
17304.000			-10.483			-3.494
17405.000			-10.482			-3.494
17503.000			-10.481			-3.494
17605.000			-10.480			-3.493
17704.000			-10.479			-3.493
17804.000			-10.478			-3.493
17905.000			-10.477			-3.492
18004.000			-10.474			-3.491
18104.000			-10.474			-3.491
18204.000			-10.473			-3.491
18304.000			-10.473			-3.491
18404.000			-10.473			-3.491
18505.000			-10.471			-3.490
18604.000			-10.470			-3.490
18704.000			-10.468			-3.489
18805.000			-10.466			-3.489
18903.000			-10.466			-3.489
19004.000			-10.465			-3.488
19105.000			-10.464			-3.488
19204.000			-10.464			-3.488
19304.000			-10.462			-3.487
19405.000			-10.462			-3.487
19504.000			-10.461			-3.487
19603.000			-10.461			-3.487
19705.000			-10.461			-3.487
19804.000			-10.459			-3.486
19904.000			-10.459			-3.486
20005.000			-10.458			-3.486
20103.000			-10.457			-3.486
20204.000			-10.455			-3.485
20305.000			-10.454			-3.485
20404.000			-10.453			-3.484
20504.000			-10.453			-3.484
20604.000			-10.452			-3.484
20704.000			-10.451			-3.484
20803.000			-10.450			-3.483
20904.000			-10.449			-3.483
21004.000			-10.449			-3.483
21105.000			-10.449			-3.483
21204.000			-10.448			-3.483
21304.000			-10.446			-3.482
21405.000			-10.446			-3.482
21504.000			-10.445			-3.482
21604.000			-10.443			-3.481
21705.000			-10.442			-3.481
21804.000			-10.443			-3.481
21904.000			-10.442			-3.481
22004.000			-10.441			-3.480
22104.000			-10.439			-3.480
22204.000			-10.439			-3.480
22305.000			-10.438			-3.479
22404.000			-10.438			-3.479
22504.000			-10.436			-3.479
22605.000			-10.436			-3.479
22703.000			-10.435			-3.478
22804.000			-10.434			-3.478
22905.000			-10.433			-3.478
23004.000			-10.432			-3.477
23104.000			-10.432			-3.477
23204.000			-10.432			-3.477
23304.000			-10.431			-3.477
23404.000			-10.429			-3.476
23505.000			-10.428			-3.476
23604.000			-10.428			-3.476
23704.000			-10.426			-3.475
23805.000			-10.426			-3.475
23903.000			-10.426			-3.475
24005.000			-10.425			-3.475
24104.000			-10.424			-3.475
24204.000			-10.423			-3.474
24305.000			-10.421			-3.474
24404.000			-10.421			-3.474
24504.000			-10.420			-3.473
24604.000			-10.420			-3.473
24704.000			-10.419			-3.473
24804.000			-10.419			-3.473
24905.000			-10.416			-3.472
25004.000			-10.416			-3.472
25103.000			-10.416			-3.472
25205.000			-10.414			-3.471
25304.000			-10.414			-3.471
25404.000			-10.413			-3.471
25505.000			-10.412			-3.471
25604.000			-10.412			-3.471
25704.000			-10.411			-3.470
25804.000			-10.410			-3.470
25904.000			-10.410			-3.470
26004.000			-10.408			-3.469
26105.000			-10.408			-3.469
26204.000			-10.407			-3.469
26304.000			-10.407			-3.469
26405.000			-10.406			-3.469
26504.000			-10.405			-3.468
26604.000			-10.405			-3.468
26705.000			-10.403			-3.468
26804.000			-10.402			-3.467
26904.000			-10.402			-3.467
27003.000			-10.402			-3.467
27104.000			-10.401			-3.467
27205.000			-10.400			-3.467
27304.000			-10.399			-3.466
27404.000			-10.398			-3.466
27505.000			-10.398			-3.466
27604.000			-10.397			-3.466
27703.000			-10.397			-3.466
27805.000			-10.396			-3.465
27904.000			-10.395			-3.465
28004.000			-10.394			-3.465
28105.000			-10.394			-3.465
28204.000			-10.393			-3.464
28304.000			-10.392			-3.464
28404.000			-10.391			-3.464
28504.000			-10.391			-3.464
28604.000			-10.390			-3.463
28705.000			-10.388			-3.463
28804.000			-10.388			-3.463
28904.000			-10.387			-3.462
29005.000			-10.386			-3.462
29103.000			-10.386			-3.462
29204.000			-10.386			-3.462
29305.000			-10.385			-3.462
29404.000			-10.384			-3.461
29504.000			-10.383			-3.461
29604.000			-10.383			-3.461
29704.000			-10.383			-3.461
29803.000			-10.381			-3.460
29905.000			-10.381			-3.460
30004.000			-10.381			-3.460
30104.000			-10.380			-3.460
30205.000			-10.379			-3.460
30303.000			-10.378			-3.459
30405.000			-10.376			-3.459
30504.000			-10.377			-3.459
30604.000			-10.378			-3.459
30705.000			-10.377			-3.459
30804.000			-10.374			-3.458
30904.000			-10.374			-3.458
31004.000			-10.374			-3.458
31104.000			-10.373			-3.458
31204.000			-10.372			-3.457
31305.000			-10.372			-3.457
31404.000			-10.371			-3.457
31504.000			-10.371			-3.457
31605.000			-10.370			-3.457
31703.000			-10.370			-3.457
31804.000			-10.368			-3.456
31905.000			-10.369			-3.456
32004.000			-10.368			-3.456
32104.000			-10.366			-3.455
32204.000			-10.365			-3.455
32304.000			-10.365			-3.455
32404.000			-10.364			-3.455
32505.000			-10.364			-3.455
32604.000			-10.364			-3.455
32704.000			-10.363			-3.454
32805.000			-10.363			-3.454
32903.000			-10.363			-3.454
33004.000			-10.361			-3.454
33105.000			-10.360			-3.453
33204.000			-10.360			-3.453
33304.000			-10.359			-3.453
33404.000			-10.358			-3.453
33504.000			-10.358			-3.453
33603.000			-10.358			-3.453
33704.000			-10.357			-3.452
33804.000			-10.357			-3.452
33905.000			-10.356			-3.452
34004.000			-10.355			-3.452
34103.000			-10.355			-3.452
34205.000			-10.355			-3.452
34304.000			-10.354			-3.451
34404.000			-10.353			-3.451
34505.000			-10.353			-3.451
34604.000			-10.352			-3.451
34704.000			-10.352			-3.451
34804.000			-10.350			-3.450
34904.000			-10.349			-3.450
35004.000			-10.349			-3.450
35105.000			-10.348			-3.449
35204.000			-10.348			-3.449
35303.000			-10.348			-3.449
35405.000			-10.349			-3.450
35504.000			-10.347			-3.449
35604.000			-10.347			-3.449
35705.000			-10.347			-3.449
35804.000			-10.346			-3.449
35904.000			-10.345			-3.448
36004.000			-10.345			-3.448
36104.000			-10.343			-3.448
36204.000			-10.343			-3.448
36305.000			-10.342			-3.447
36404.000			-10.341			-3.447
36504.000			-10.340			-3.447
36605.000			-10.340			-3.447
36703.000			-10.341			-3.447
36805.000			-10.340			-3.447
36904.000			-10.339			-3.446
37004.000			-10.338			-3.446
37105.000			-10.338			-3.446
37203.000			-10.337			-3.446
37304.000			-10.337			-3.446
37405.000			-10.337			-3.446
37504.000			-10.336			-3.445
37604.000			-10.336			-3.445
37705.000			-10.335			-3.445
37804.000			-10.334			-3.445
37903.000			-10.333			-3.444
38005.000			-10.333			-3.444
38104.000			-10.332			-3.444
38204.000			-10.331			-3.444
38305.000			-10.332			-3.444
38404.000			-10.331			-3.444
38504.000			-10.331			-3.444
38604.000			-10.330			-3.443
38704.000			-10.330			-3.443
38804.000			-10.329			-3.443
38905.000			-10.328			-3.443
39004.000			-10.328			-3.443
39104.000			-10.327			-3.442
39205.000			-10.328			-3.443
39303.000			-10.327			-3.442
39404.000			-10.326			-3.442
39505.000			-10.325			-3.442
39604.000			-10.324			-3.441
39704.000			-10.325			-3.442
39803.000			-10.324			-3.441
39904.000			-10.324			-3.441
40005.000			-10.324			-3.441
40104.000			-10.324			-3.441
40204.000			-10.323			-3.441
40305.000			-10.322			-3.441
40404.000			-10.321			-3.440
40503.000			-10.321			-3.440
40605.000			-10.320			-3.440
40704.000			-10.320			-3.440
40804.000			-10.320			-3.440
40905.000			-10.318			-3.439
41004.000			-10.317			-3.439
41104.000			-10.317			-3.439
41204.000			-10.316			-3.439
41304.000			-10.316			-3.439
41404.000			-10.316			-3.439
41505.000			-10.316			-3.439
41604.000			-10.315			-3.438
41703.000			-10.315			-3.438
41805.000			-10.314			-3.438
41904.000			-10.313			-3.438
42004.000			-10.313			-3.438
42105.000			-10.312			-3.437
42204.000			-10.312			-3.437
42304.000			-10.311			-3.437
42404.000			-10.311			-3.437
42504.000			-10.311			-3.437
42604.000			-10.311			-3.437
42705.000			-10.310			-3.437
42804.000			-10.309			-3.436
42903.000			-10.309			-3.436
43005.000			-10.308			-3.436
43104.000			-10.307			-3.436
43205.000			-10.307			-3.436
43304.000			-10.307			-3.436
43404.000			-10.307			-3.436
43505.000			-10.305			-3.435
43603.000			-10.304			-3.435
43704.000			-10.304			-3.435
43805.000			-10.305			-3.435
43904.000			-10.304			-3.435
44004.000			-10.303			-3.434
44104.000			-10.303			-3.434
44204.000			-10.301			-3.434
44303.000			-10.300			-3.433
44405.000			-10.299			-3.433
44504.000			-10.300			-3.433
44604.000			-10.300			-3.433
44705.000			-10.298			-3.433
44803.000			-10.298			-3.433
44904.000			-10.297			-3.432
45005.000			-10.296			-3.432
45104.000			-10.296			-3.432
45204.000			-10.296			-3.432
45305.000			-10.295			-3.432
45404.000			-10.294			-3.431
45503.000			-10.293			-3.431
45605.000			-10.293			-3.431
45704.000			-10.292			-3.431
45804.000			-10.292			-3.431
45905.000			-10.291			-3.430
46004.000			-10.291			-3.430
46104.000			-10.291			-3.430
46203.000			-10.291			-3.430
46304.000			-10.290			-3.430
46405.000			-10.289			-3.430
46504.000			-10.288			-3.429
46604.000			-10.289			-3.430
46705.000			-10.287			-3.429
46804.000			-10.287			-3.429
46903.000			-10.287			-3.429
47005.000			-10.286			-3.429
47104.000			-10.285			-3.428
47204.000			-10.284			-3.428
47305.000			-10.284			-3.428
47404.000			-10.284			-3.428
47504.000			-10.284			-3.428
47604.000			-10.283			-3.428
47704.000			-10.282			-3.427
47804.000			-10.283			-3.428
47905.000			-10.282			-3.427
48004.000			-10.281			-3.427
48104.000			-10.281			-3.427
48205.000			-10.280			-3.427
48303.000			-10.280			-3.427
48404.000			-10.280			-3.427
48505.000			-10.280			-3.427
48604.000			-10.279			-3.426
48704.000			-10.279			-3.426
48804.000			-10.278			-3.426
48904.000			-10.278			-3.426
49003.000			-10.278			-3.426
49105.000			-10.277			-3.426
49204.000			-10.277			-3.426
49304.000			-10.275			-3.425
49405.000			-10.275			-3.425
49503.000			-10.274			-3.425
49605.000			-10.274			-3.425
49704.000			-10.274			-3.425
49804.000			-10.273			-3.424
49905.000			-10.273			-3.424
50004.000			-10.271			-3.424
50104.000			-10.271			-3.424
50204.000			-10.271			-3.424
50304.000			-10.271			-3.424
50404.000			-10.272			-3.424
50505.000			-10.271			-3.424
50604.000			-10.270			-3.423
50704.000			-10.270			-3.423
50805.000			-10.269			-3.423
50903.000			-10.269			-3.423
51004.000			-10.268			-3.423
51105.000			-10.267			-3.422
51204.000			-10.267			-3.422
51304.000			-10.267			-3.422
51405.000			-10.267			-3.422
51504.000			-10.266			-3.422
51603.000			-10.266			-3.422
51705.000			-10.265			-3.422
51804.000			-10.264			-3.421
51904.000			-10.263			-3.421
52005.000			-10.263			-3.421
52103.000			-10.264			-3.421
52204.000			-10.264			-3.421
52305.000			-10.262			-3.421
52404.000			-10.261			-3.420
52504.000			-10.261			-3.420
52604.000			-10.261			-3.420
52704.000			-10.261			-3.420
52803.000			-10.262			-3.421
52904.000			-10.260			-3.420
53004.000			-10.261			-3.420
53105.000			-10.260			-3.420
53204.000			-10.258			-3.419
53304.000			-10.258			-3.419
53405.000			-10.259			-3.420
53504.000			-10.259			-3.420
53604.000			-10.259			-3.420
53705.000			-10.258			-3.419
53804.000			-10.256			-3.419
53904.000			-10.256			-3.419
54004.000			-10.257			-3.419
54104.000			-10.256			-3.419
54204.000			-10.255			-3.418
54305.000			-10.255			-3.418
54404.000			-10.253			-3.418
54504.000			-10.253			-3.418
54605.000			-10.253			-3.418
54703.000			-10.253			-3.418
54804.000			-10.253			-3.418
54905.000			-10.253			-3.418
55004.000			-10.252			-3.417
55104.000			-10.251			-3.417
55205.000			-10.251			-3.417
55304.000			-10.251			-3.417
55403.000			-10.251			-3.417
55505.000			-10.249			-3.416
55604.000			-10.249			-3.416
55704.000			-10.250			-3.417
55805.000			-10.249			-3.416
55903.000			-10.249			-3.416
56005.000			-10.248			-3.416
56104.000			-10.247			-3.416
56204.000			-10.246			-3.415
56305.000			-10.247			-3.416
56404.000			-10.246			-3.415
56504.000			-10.246			-3.415
56604.000			-10.244			-3.415
56704.000			-10.245			-3.415
56804.000			-10.245			-3.415
56905.000			-10.246			-3.415
57004.000			-10.244			-3.415
57104.000			-10.244			-3.415
57205.000			-10.244			-3.415
57303.000			-10.243			-3.414
57404.000			-10.244			-3.415
57505.000			-10.242			-3.414
57604.000			-10.242			-3.414
57704.000			-10.242			-3.414
57805.000			-10.240			-3.413
57904.000			-10.240			-3.413
58003.000			-10.241			-3.414
58105.000			-10.240			-3.413
58204.000			-10.239			-3.413
58304.000			-10.239			-3.413
58405.000			-10.240			-3.413
58503.000			-10.240			-3.413
58604.000			-10.238			-3.413
58705.000			-10.237			-3.412
58804.000			-10.238			-3.413
58904.000			-10.237			-3.412
59004.000			-10.238			-3.413
59104.000			-10.238			-3.413
59203.000			-10.238			-3.413
59304.000			-10.236			-3.412
59404.000			-10.236			-3.412
59505.000			-10.236			-3.412
59604.000			-10.234			-3.411
59704.000			-10.235			-3.412
59805.000			-10.235			-3.412
59903.000			-10.234			-3.411
60004.000			-10.233			-3.411
60105.000			-10.233			-3.411
60204.000			-10.233			-3.411
60304.000			-10.234			-3.411
60405.000			-10.233			-3.411
60504.000			-10.233			-3.411
60603.000			-10.233			-3.411
60705.000			-10.231			-3.410
60804.000			-10.231			-3.410
60904.000			-10.231			-3.410
61005.000			-10.229			-3.410
61103.000			-10.229			-3.410
61204.000			-10.229			-3.410
61305.000			-10.229			-3.410
61404.000			-10.229			-3.410
61504.000			-10.229			-3.410
61605.000			-10.228			-3.409
61704.000			-10.228			-3.409
61803.000			-10.228			-3.409
61905.000			-10.227			-3.409
62004.000			-10.227			-3.409
62104.000			-10.227			-3.409
62205.000			-10.227			-3.409
62304.000			-10.227			-3.409
62405.000			-10.227			-3.409
62503.000			-10.226			-3.409
62604.000			-10.225			-3.408
62705.000			-10.225			-3.408
62804.000			-10.225			-3.408
62904.000			-10.225			-3.408
63004.000			-10.225			-3.408
63104.000			-10.225			-3.408
63204.000			-10.224			-3.408
63305.000			-10.224			-3.408
63404.000			-10.223			-3.408
63504.000			-10.223			-3.408
63605.000			-10.224			-3.408
63703.000			-10.223			-3.408
63804.000			-10.222			-3.407
63905.000			-10.221			-3.407
64004.000			-10.221			-3.407
64104.000			-10.220			-3.407
64204.000			-10.220			-3.407
64304.000			-10.221			-3.407
64404.000			-10.221			-3.407
64505.000			-10.220			-3.407
64604.000			-10.220			-3.407
64704.000			-10.220			-3.407
64805.000			-10.219			-3.406
64903.000			-10.220			-3.407
65004.000			-10.219			-3.406
65105.000			-10.219			-3.406
65204.000			-10.220			-3.407
65304.000			-10.219			-3.406
65404.000			-10.219			-3.406
65504.000			-10.219			-3.406
65603.000			-10.219			-3.406
65704.000			-10.220			-3.407
65804.000			-10.218			-3.406
65905.000			-10.218			-3.406
66004.000			-10.218			-3.406
66104.000			-10.217			-3.406
66205.000			-10.216			-3.405
66303.000			-10.217			-3.406
66404.000			-10.217			-3.406
66505.000			-10.216			-3.405
66604.000			-10.216			-3.405
66704.000			-10.216			-3.405
66804.000			-10.216			-3.405
66904.000			-10.216			-3.405
67003.000			-10.214			-3.405
67105.000			-10.214			-3.405
67204.000			-10.214			-3.405
67304.000			-10.214			-3.405
67405.000			-10.214			-3.405
67503.000			-10.214			-3.405
67604.000			-10.214			-3.405
67705.000			-10.213			-3.404
67804.000			-10.213			-3.404
67904.000			-10.213			-3.404
68005.000			-10.213			-3.404
68104.000			-10.212			-3.404
68203.000			-10.212			-3.404
68305.000			-10.212			-3.404
68404.000			-10.212			-3.404
68504.000			-10.211			-3.404
68605.000			-10.210			-3.403
68704.000			-10.210			-3.403
