# Acquired on 29/01/2024 15:47:31 
# SPIDER: Creep_-10mm_GRPCNT1454A-3
# CREEP MEASUREMENT

# time [ms]		force [N]		stiffness [N/mm]
0.000			48.682			-4.868
104.000			49.005			-4.901
204.000			48.782			-4.878
304.000			48.388			-4.839
405.000			48.077			-4.808
504.000			47.830			-4.783
603.000			47.434			-4.743
705.000			47.270			-4.727
804.000			47.123			-4.712
904.000			46.989			-4.699
1005.000			46.867			-4.687
1103.000			46.754			-4.675
1205.000			46.648			-4.665
1304.000			46.457			-4.646
1404.000			46.372			-4.637
1505.000			46.291			-4.629
1604.000			46.215			-4.622
1704.000			46.143			-4.614
1804.000			46.073			-4.607
1904.000			46.007			-4.601
2004.000			45.944			-4.594
2105.000			45.825			-4.582
2204.000			45.770			-4.577
2304.000			45.715			-4.572
2405.000			45.664			-4.566
2503.000			45.615			-4.561
2604.000			45.567			-4.557
2705.000			45.520			-4.552
2804.000			45.433			-4.543
2904.000			45.390			-4.539
3004.000			45.349			-4.535
3104.000			45.310			-4.531
3204.000			45.271			-4.527
3305.000			45.234			-4.523
3404.000			45.197			-4.520
3504.000			45.129			-4.513
3605.000			45.095			-4.509
3703.000			45.062			-4.506
3804.000			45.029			-4.503
3905.000			44.997			-4.500
4004.000			44.968			-4.497
4104.000			44.937			-4.494
4203.000			44.879			-4.488
4304.000			44.851			-4.485
4405.000			44.823			-4.482
4504.000			44.795			-4.479
4604.000			44.769			-4.477
4705.000			44.743			-4.474
4804.000			44.718			-4.472
4903.000			44.694			-4.469
5005.000			44.644			-4.464
5104.000			44.620			-4.462
5204.000			44.597			-4.460
5305.000			44.575			-4.458
5404.000			44.553			-4.455
5504.000			44.530			-4.453
5604.000			44.508			-4.451
5704.000			44.465			-4.447
5804.000			44.445			-4.445
5905.000			44.424			-4.442
6004.000			44.404			-4.440
6103.000			44.385			-4.438
6205.000			44.366			-4.437
6304.000			44.346			-4.435
6404.000			44.309			-4.431
6505.000			44.290			-4.429
6604.000			44.272			-4.427
6704.000			44.254			-4.425
6804.000			44.237			-4.424
6904.000			44.220			-4.422
7004.000			44.202			-4.420
7105.000			44.169			-4.417
7204.000			44.152			-4.415
7303.000			44.135			-4.414
7405.000			44.118			-4.412
7504.000			44.103			-4.410
7605.000			44.088			-4.409
7704.000			44.072			-4.407
7804.000			44.041			-4.404
7905.000			44.026			-4.403
8003.000			44.012			-4.401
8104.000			43.996			-4.400
8205.000			43.982			-4.398
8304.000			43.968			-4.397
8404.000			43.953			-4.395
8505.000			43.939			-4.394
8604.000			43.911			-4.391
8703.000			43.898			-4.390
8805.000			43.883			-4.388
8904.000			43.871			-4.387
9004.000			43.857			-4.386
9105.000			43.844			-4.384
9204.000			43.831			-4.383
9304.000			43.807			-4.381
9405.000			43.794			-4.379
9504.000			43.780			-4.378
9604.000			43.767			-4.377
9705.000			43.755			-4.376
9804.000			43.743			-4.374
9903.000			43.731			-4.373
10005.000			43.707			-4.371
10104.000			43.696			-4.370
10204.000			43.685			-4.369
10305.000			43.674			-4.367
10404.000			43.663			-4.366
10504.000			43.652			-4.365
10603.000			43.641			-4.364
10704.000			43.619			-4.362
10805.000			43.608			-4.361
10904.000			43.597			-4.360
11004.000			43.586			-4.359
11105.000			43.576			-4.358
11204.000			43.565			-4.356
11303.000			43.553			-4.355
11405.000			43.532			-4.353
11504.000			43.522			-4.352
11604.000			43.513			-4.351
11705.000			43.503			-4.350
11803.000			43.493			-4.349
11904.000			43.482			-4.348
12005.000			43.472			-4.347
12104.000			43.463			-4.346
12204.000			43.444			-4.344
12305.000			43.436			-4.344
12404.000			43.426			-4.343
12503.000			43.417			-4.342
12605.000			43.408			-4.341
12704.000			43.398			-4.340
12804.000			43.388			-4.339
12905.000			43.369			-4.337
13004.000			43.360			-4.336
13104.000			43.350			-4.335
13204.000			43.342			-4.334
13304.000			43.335			-4.333
13404.000			43.326			-4.333
13505.000			43.317			-4.332
13604.000			43.299			-4.330
13704.000			43.291			-4.329
13805.000			43.282			-4.328
13903.000			43.275			-4.327
14005.000			43.267			-4.327
14104.000			43.259			-4.326
14204.000			43.249			-4.325
14305.000			43.234			-4.323
14404.000			43.226			-4.323
14504.000			43.217			-4.322
14604.000			43.209			-4.321
14704.000			43.201			-4.320
14804.000			43.193			-4.319
14905.000			43.184			-4.318
15004.000			43.175			-4.318
15103.000			43.161			-4.316
15205.000			43.153			-4.315
15304.000			43.146			-4.315
15404.000			43.139			-4.314
15505.000			43.131			-4.313
15604.000			43.124			-4.312
15704.000			43.117			-4.312
15804.000			43.102			-4.310
15904.000			43.094			-4.309
16004.000			43.087			-4.309
16105.000			43.080			-4.308
16204.000			43.072			-4.307
16304.000			43.065			-4.307
16405.000			43.058			-4.306
16503.000			43.044			-4.304
16604.000			43.037			-4.304
16705.000			43.029			-4.303
16804.000			43.022			-4.302
16904.000			43.014			-4.301
17003.000			43.007			-4.301
17104.000			43.001			-4.300
17205.000			42.989			-4.299
17304.000			42.983			-4.298
17404.000			42.975			-4.298
17505.000			42.968			-4.297
17604.000			42.962			-4.296
17703.000			42.956			-4.296
17805.000			42.949			-4.295
17904.000			42.936			-4.294
18004.000			42.929			-4.293
18105.000			42.922			-4.292
18204.000			42.916			-4.292
18304.000			42.911			-4.291
18404.000			42.904			-4.290
18504.000			42.898			-4.290
18604.000			42.892			-4.289
18705.000			42.880			-4.288
18804.000			42.874			-4.287
18904.000			42.867			-4.287
19005.000			42.860			-4.286
19103.000			42.854			-4.285
19204.000			42.849			-4.285
19305.000			42.844			-4.284
19404.000			42.831			-4.283
19504.000			42.825			-4.283
19605.000			42.820			-4.282
19704.000			42.814			-4.281
19803.000			42.808			-4.281
19905.000			42.801			-4.280
20004.000			42.796			-4.280
20104.000			42.785			-4.278
20205.000			42.779			-4.278
20304.000			42.774			-4.277
20405.000			42.768			-4.277
20503.000			42.762			-4.276
20604.000			42.756			-4.276
20705.000			42.750			-4.275
20804.000			42.739			-4.274
20904.000			42.733			-4.273
21005.000			42.728			-4.273
21104.000			42.722			-4.272
21203.000			42.718			-4.272
21305.000			42.713			-4.271
21404.000			42.706			-4.271
21504.000			42.702			-4.270
21605.000			42.691			-4.269
21703.000			42.685			-4.268
21804.000			42.679			-4.268
21905.000			42.674			-4.267
22004.000			42.669			-4.267
22104.000			42.664			-4.266
22205.000			42.658			-4.266
22304.000			42.649			-4.265
22403.000			42.644			-4.264
22505.000			42.639			-4.264
22604.000			42.634			-4.263
22704.000			42.629			-4.263
22805.000			42.624			-4.262
22904.000			42.618			-4.262
23004.000			42.608			-4.261
23104.000			42.603			-4.260
23204.000			42.598			-4.260
23304.000			42.593			-4.259
23404.000			42.588			-4.259
23504.000			42.584			-4.258
23605.000			42.580			-4.258
23704.000			42.568			-4.257
23803.000			42.563			-4.256
23905.000			42.559			-4.256
24004.000			42.555			-4.256
24104.000			42.551			-4.255
24205.000			42.544			-4.254
24304.000			42.539			-4.254
24404.000			42.530			-4.253
24504.000			42.525			-4.253
24604.000			42.521			-4.252
24704.000			42.516			-4.252
24805.000			42.511			-4.251
24904.000			42.507			-4.251
25003.000			42.502			-4.250
25105.000			42.497			-4.250
25204.000			42.489			-4.249
25304.000			42.484			-4.248
25405.000			42.478			-4.248
25504.000			42.475			-4.247
25604.000			42.472			-4.247
25704.000			42.467			-4.247
25804.000			42.461			-4.246
25904.000			42.453			-4.245
26005.000			42.449			-4.245
26104.000			42.444			-4.244
26204.000			42.440			-4.244
26305.000			42.436			-4.244
26403.000			42.431			-4.243
26504.000			42.426			-4.243
26605.000			42.418			-4.242
26704.000			42.413			-4.241
26805.000			42.409			-4.241
26904.000			42.405			-4.240
27004.000			42.400			-4.240
27104.000			42.395			-4.240
27204.000			42.391			-4.239
27304.000			42.382			-4.238
27405.000			42.379			-4.238
27504.000			42.375			-4.238
27604.000			42.371			-4.237
27705.000			42.368			-4.237
27803.000			42.364			-4.236
27904.000			42.360			-4.236
28005.000			42.350			-4.235
28104.000			42.347			-4.235
28204.000			42.343			-4.234
28304.000			42.338			-4.234
28404.000			42.334			-4.233
28503.000			42.330			-4.233
28605.000			42.326			-4.233
28704.000			42.322			-4.232
28804.000			42.315			-4.231
28905.000			42.310			-4.231
29003.000			42.305			-4.231
29104.000			42.302			-4.230
29205.000			42.297			-4.230
29304.000			42.294			-4.229
29404.000			42.292			-4.229
29505.000			42.283			-4.228
29604.000			42.278			-4.228
29703.000			42.275			-4.227
29805.000			42.271			-4.227
29904.000			42.268			-4.227
30005.000			42.265			-4.226
30104.000			42.261			-4.226
30204.000			42.252			-4.225
30305.000			42.248			-4.225
30403.000			42.245			-4.224
30504.000			42.241			-4.224
30605.000			42.238			-4.224
30704.000			42.235			-4.223
30804.000			42.231			-4.223
30905.000			42.223			-4.222
31004.000			42.219			-4.222
31103.000			42.215			-4.221
31205.000			42.211			-4.221
31304.000			42.207			-4.221
31404.000			42.204			-4.220
31505.000			42.201			-4.220
31603.000			42.197			-4.220
31704.000			42.190			-4.219
31805.000			42.185			-4.219
31904.000			42.182			-4.218
32004.000			42.179			-4.218
32105.000			42.174			-4.217
32204.000			42.171			-4.217
32303.000			42.168			-4.217
32405.000			42.162			-4.216
32504.000			42.158			-4.216
32604.000			42.155			-4.215
32705.000			42.150			-4.215
32804.000			42.147			-4.215
32904.000			42.143			-4.214
33003.000			42.140			-4.214
33104.000			42.132			-4.213
33205.000			42.130			-4.213
33304.000			42.127			-4.213
33404.000			42.121			-4.212
33504.000			42.119			-4.212
33604.000			42.116			-4.212
33704.000			42.112			-4.211
33805.000			42.106			-4.211
33904.000			42.103			-4.210
34004.000			42.100			-4.210
34105.000			42.096			-4.210
34203.000			42.092			-4.209
34304.000			42.088			-4.209
34405.000			42.086			-4.209
34504.000			42.079			-4.208
34604.000			42.075			-4.208
34705.000			42.072			-4.207
34804.000			42.069			-4.207
34903.000			42.065			-4.206
35005.000			42.062			-4.206
35104.000			42.059			-4.206
35204.000			42.056			-4.206
35305.000			42.049			-4.205
35404.000			42.046			-4.205
35504.000			42.044			-4.204
35604.000			42.041			-4.204
35704.000			42.037			-4.204
35804.000			42.033			-4.203
35905.000			42.031			-4.203
36004.000			42.024			-4.202
36103.000			42.021			-4.202
36205.000			42.016			-4.202
36304.000			42.013			-4.201
36405.000			42.011			-4.201
36504.000			42.008			-4.201
36604.000			42.005			-4.201
36705.000			41.999			-4.200
36803.000			41.995			-4.200
36904.000			41.992			-4.199
37005.000			41.989			-4.199
37104.000			41.987			-4.199
37204.000			41.984			-4.198
37305.000			41.982			-4.198
37404.000			41.974			-4.197
37503.000			41.972			-4.197
37605.000			41.969			-4.197
37704.000			41.964			-4.196
37804.000			41.962			-4.196
37905.000			41.959			-4.196
38004.000			41.956			-4.196
38104.000			41.949			-4.195
38204.000			41.947			-4.195
38304.000			41.944			-4.194
38404.000			41.940			-4.194
38505.000			41.937			-4.194
38604.000			41.935			-4.194
38704.000			41.932			-4.193
38805.000			41.926			-4.193
38903.000			41.924			-4.192
39004.000			41.921			-4.192
39105.000			41.918			-4.192
39204.000			41.914			-4.191
39304.000			41.911			-4.191
39404.000			41.910			-4.191
39504.000			41.907			-4.191
39604.000			41.900			-4.190
39704.000			41.896			-4.190
39804.000			41.893			-4.189
39905.000			41.890			-4.189
40004.000			41.888			-4.189
40104.000			41.885			-4.188
40205.000			41.882			-4.188
40303.000			41.878			-4.188
40404.000			41.875			-4.187
40505.000			41.871			-4.187
40604.000			41.868			-4.187
40704.000			41.865			-4.187
40804.000			41.862			-4.186
40904.000			41.859			-4.186
41003.000			41.855			-4.185
41105.000			41.851			-4.185
41204.000			41.849			-4.185
41304.000			41.847			-4.185
41405.000			41.843			-4.184
41503.000			41.840			-4.184
41604.000			41.837			-4.184
41705.000			41.832			-4.183
41804.000			41.830			-4.183
41904.000			41.826			-4.183
42005.000			41.823			-4.182
42104.000			41.822			-4.182
42203.000			41.818			-4.182
42305.000			41.815			-4.182
42404.000			41.814			-4.181
42504.000			41.808			-4.181
42605.000			41.806			-4.181
42704.000			41.804			-4.180
42805.000			41.800			-4.180
42903.000			41.797			-4.180
43004.000			41.796			-4.180
43105.000			41.793			-4.179
43204.000			41.787			-4.179
43304.000			41.784			-4.178
43405.000			41.782			-4.178
43504.000			41.779			-4.178
43603.000			41.776			-4.178
43705.000			41.774			-4.177
43804.000			41.772			-4.177
43904.000			41.766			-4.177
44005.000			41.763			-4.176
44104.000			41.762			-4.176
44204.000			41.758			-4.176
44304.000			41.754			-4.175
44404.000			41.752			-4.175
44504.000			41.750			-4.175
44605.000			41.746			-4.175
44704.000			41.744			-4.174
44804.000			41.740			-4.174
44905.000			41.738			-4.174
45003.000			41.735			-4.174
45104.000			41.732			-4.173
45205.000			41.729			-4.173
45304.000			41.725			-4.173
45404.000			41.722			-4.172
45504.000			41.719			-4.172
45604.000			41.717			-4.172
45704.000			41.714			-4.171
45804.000			41.712			-4.171
45904.000			41.709			-4.171
46005.000			41.707			-4.171
46104.000			41.702			-4.170
46203.000			41.699			-4.170
46305.000			41.696			-4.170
46404.000			41.695			-4.169
46504.000			41.693			-4.169
46605.000			41.690			-4.169
46704.000			41.688			-4.169
46804.000			41.684			-4.168
46904.000			41.681			-4.168
47004.000			41.678			-4.168
47104.000			41.675			-4.167
47205.000			41.672			-4.167
47304.000			41.671			-4.167
47404.000			41.668			-4.167
47505.000			41.664			-4.166
47603.000			41.661			-4.166
47704.000			41.659			-4.166
47805.000			41.656			-4.166
47904.000			41.655			-4.165
48004.000			41.653			-4.165
48105.000			41.650			-4.165
48204.000			41.643			-4.164
48303.000			41.641			-4.164
48405.000			41.638			-4.164
48504.000			41.636			-4.164
48604.000			41.634			-4.163
48705.000			41.633			-4.163
48804.000			41.631			-4.163
48904.000			41.626			-4.163
49003.000			41.623			-4.162
49104.000			41.621			-4.162
49205.000			41.619			-4.162
49304.000			41.618			-4.162
49404.000			41.616			-4.162
49505.000			41.613			-4.161
49604.000			41.609			-4.161
49703.000			41.605			-4.161
49805.000			41.604			-4.160
49904.000			41.602			-4.160
50004.000			41.598			-4.160
50105.000			41.595			-4.160
50204.000			41.592			-4.159
50304.000			41.591			-4.159
50404.000			41.587			-4.159
50504.000			41.585			-4.159
50604.000			41.583			-4.158
50705.000			41.580			-4.158
50804.000			41.577			-4.158
50903.000			41.574			-4.157
51005.000			41.573			-4.157
51104.000			41.569			-4.157
51204.000			41.567			-4.157
51305.000			41.564			-4.156
51404.000			41.562			-4.156
51504.000			41.561			-4.156
51604.000			41.559			-4.156
51704.000			41.556			-4.156
51804.000			41.552			-4.155
51905.000			41.549			-4.155
52004.000			41.547			-4.155
52104.000			41.546			-4.155
52205.000			41.543			-4.154
52303.000			41.541			-4.154
52405.000			41.539			-4.154
52504.000			41.536			-4.154
52604.000			41.532			-4.153
52705.000			41.530			-4.153
52804.000			41.528			-4.153
52904.000			41.526			-4.153
53004.000			41.524			-4.152
53104.000			41.522			-4.152
53204.000			41.519			-4.152
53305.000			41.513			-4.151
53404.000			41.511			-4.151
53503.000			41.510			-4.151
53605.000			41.509			-4.151
53704.000			41.506			-4.151
53804.000			41.503			-4.150
53905.000			41.502			-4.150
54004.000			41.498			-4.150
54104.000			41.496			-4.150
54204.000			41.494			-4.149
54304.000			41.492			-4.149
54404.000			41.490			-4.149
54505.000			41.488			-4.149
54604.000			41.485			-4.148
54704.000			41.480			-4.148
54805.000			41.479			-4.148
54903.000			41.476			-4.148
55004.000			41.473			-4.147
55105.000			41.471			-4.147
55204.000			41.470			-4.147
55304.000			41.467			-4.147
55404.000			41.465			-4.147
55504.000			41.463			-4.146
55604.000			41.460			-4.146
55704.000			41.457			-4.146
55804.000			41.456			-4.146
55905.000			41.454			-4.145
56004.000			41.452			-4.145
56104.000			41.448			-4.145
56205.000			41.446			-4.145
56303.000			41.444			-4.144
56404.000			41.442			-4.144
56505.000			41.440			-4.144
56604.000			41.438			-4.144
56704.000			41.436			-4.144
56805.000			41.434			-4.143
56904.000			41.430			-4.143
57003.000			41.428			-4.143
57105.000			41.426			-4.143
57204.000			41.424			-4.142
57304.000			41.422			-4.142
57405.000			41.420			-4.142
57504.000			41.417			-4.142
57604.000			41.415			-4.141
57704.000			41.413			-4.141
57804.000			41.411			-4.141
57904.000			41.408			-4.141
58005.000			41.407			-4.141
58104.000			41.406			-4.141
58203.000			41.403			-4.140
58305.000			41.397			-4.140
58404.000			41.395			-4.140
58504.000			41.393			-4.139
58605.000			41.391			-4.139
58704.000			41.390			-4.139
58805.000			41.389			-4.139
58904.000			41.388			-4.139
59004.000			41.382			-4.138
59104.000			41.380			-4.138
59204.000			41.378			-4.138
59304.000			41.377			-4.138
59405.000			41.376			-4.138
59504.000			41.374			-4.137
59603.000			41.371			-4.137
59705.000			41.370			-4.137
59804.000			41.364			-4.136
59904.000			41.364			-4.136
60005.000			41.362			-4.136
60104.000			41.359			-4.136
60204.000			41.357			-4.136
60304.000			41.356			-4.136
60404.000			41.353			-4.135
60504.000			41.351			-4.135
60605.000			41.349			-4.135
60704.000			41.347			-4.135
60804.000			41.345			-4.135
60905.000			41.342			-4.134
61003.000			41.340			-4.134
61104.000			41.339			-4.134
61205.000			41.335			-4.134
61304.000			41.334			-4.133
61404.000			41.332			-4.133
61505.000			41.329			-4.133
61604.000			41.328			-4.133
61703.000			41.327			-4.133
61805.000			41.325			-4.133
61904.000			41.322			-4.132
62005.000			41.320			-4.132
62104.000			41.318			-4.132
62203.000			41.315			-4.131
62305.000			41.312			-4.131
62404.000			41.311			-4.131
62504.000			41.311			-4.131
62605.000			41.306			-4.131
62704.000			41.304			-4.130
62804.000			41.303			-4.130
62904.000			41.301			-4.130
63004.000			41.299			-4.130
63104.000			41.296			-4.130
63205.000			41.294			-4.129
63304.000			41.292			-4.129
63404.000			41.290			-4.129
63505.000			41.289			-4.129
63603.000			41.287			-4.129
63704.000			41.286			-4.129
63805.000			41.285			-4.128
63904.000			41.283			-4.128
64004.000			41.281			-4.128
64105.000			41.276			-4.128
64204.000			41.275			-4.127
64303.000			41.274			-4.127
64405.000			41.270			-4.127
64504.000			41.268			-4.127
64604.000			41.267			-4.127
64705.000			41.265			-4.127
64804.000			41.262			-4.126
64904.000			41.260			-4.126
65003.000			41.259			-4.126
65104.000			41.256			-4.126
65205.000			41.254			-4.125
65304.000			41.253			-4.125
65404.000			41.250			-4.125
65504.000			41.247			-4.125
65604.000			41.246			-4.125
65704.000			41.245			-4.125
65805.000			41.244			-4.124
65904.000			41.241			-4.124
66004.000			41.239			-4.124
66105.000			41.237			-4.124
66203.000			41.235			-4.123
66304.000			41.233			-4.123
66405.000			41.234			-4.123
66504.000			41.231			-4.123
66604.000			41.228			-4.123
66705.000			41.226			-4.123
66804.000			41.225			-4.122
66903.000			41.223			-4.122
67005.000			41.218			-4.122
67104.000			41.217			-4.122
67204.000			41.215			-4.122
67305.000			41.213			-4.121
67404.000			41.213			-4.121
67504.000			41.211			-4.121
67604.000			41.209			-4.121
67704.000			41.205			-4.121
67804.000			41.203			-4.120
67905.000			41.201			-4.120
68004.000			41.199			-4.120
68104.000			41.197			-4.120
68205.000			41.196			-4.120
68303.000			41.195			-4.120
68405.000			41.192			-4.119
68504.000			41.190			-4.119
68604.000			41.188			-4.119
68705.000			41.187			-4.119
68804.000			41.186			-4.119
68904.000			41.183			-4.118
69004.000			41.181			-4.118
69104.000			41.177			-4.118
69204.000			41.176			-4.118
69305.000			41.175			-4.118
69404.000			41.174			-4.117
69504.000			41.172			-4.117
69605.000			41.171			-4.117
69703.000			41.169			-4.117
69804.000			41.167			-4.117
69905.000			41.164			-4.116
70004.000			41.164			-4.116
70104.000			41.161			-4.116
70205.000			41.159			-4.116
70304.000			41.156			-4.116
70403.000			41.156			-4.116
70505.000			41.155			-4.115
70604.000			41.151			-4.115
70704.000			41.151			-4.115
70805.000			41.148			-4.115
70904.000			41.146			-4.115
71004.000			41.145			-4.115
71104.000			41.143			-4.114
71204.000			41.140			-4.114
