# Acquired on 20/12/2023 12:59:13 
# SPIDER: Creep_-5mm_07714532B-2
# CREEP MEASUREMENT

# time [ms]		force [N]		stiffness [N/mm]
1.000			15.387			-3.077
101.000			16.194			-3.239
202.000			16.455			-3.291
300.000			16.423			-3.285
400.000			16.354			-3.271
501.000			16.300			-3.260
600.000			16.255			-3.251
700.000			16.185			-3.237
802.000			16.157			-3.231
901.000			16.131			-3.226
1000.000			16.107			-3.221
1101.000			16.085			-3.217
1200.000			16.065			-3.213
1300.000			16.047			-3.209
1401.000			16.012			-3.202
1500.000			15.997			-3.199
1601.000			15.982			-3.196
1702.000			15.968			-3.194
1800.000			15.954			-3.191
1900.000			15.942			-3.188
2001.000			15.931			-3.186
2100.000			15.908			-3.182
2200.000			15.899			-3.180
2301.000			15.889			-3.178
2401.000			15.879			-3.176
2501.000			15.870			-3.174
2601.000			15.861			-3.172
2700.000			15.852			-3.170
2800.000			15.843			-3.169
2900.000			15.828			-3.166
3000.000			15.819			-3.164
3102.000			15.812			-3.162
3201.000			15.805			-3.161
3300.000			15.798			-3.160
3401.000			15.791			-3.158
3500.000			15.784			-3.157
3600.000			15.771			-3.154
3701.000			15.765			-3.153
3800.000			15.760			-3.152
3901.000			15.755			-3.151
4002.000			15.750			-3.150
4100.000			15.744			-3.149
4200.000			15.738			-3.148
4301.000			15.726			-3.145
4400.000			15.721			-3.144
4500.000			15.717			-3.143
4601.000			15.711			-3.142
4701.000			15.706			-3.141
4801.000			15.702			-3.140
4901.000			15.697			-3.139
5000.000			15.693			-3.139
5100.000			15.685			-3.137
5201.000			15.680			-3.136
5300.000			15.676			-3.135
5400.000			15.672			-3.134
5502.000			15.668			-3.134
5601.000			15.663			-3.133
5700.000			15.659			-3.132
5801.000			15.652			-3.130
5900.000			15.648			-3.130
6000.000			15.644			-3.129
6100.000			15.640			-3.128
6201.000			15.637			-3.127
6302.000			15.633			-3.127
6400.000			15.630			-3.126
6500.000			15.623			-3.125
6601.000			15.620			-3.124
6700.000			15.616			-3.123
6800.000			15.613			-3.123
6901.000			15.611			-3.122
7001.000			15.608			-3.122
7101.000			15.603			-3.121
7201.000			15.600			-3.120
7300.000			15.595			-3.119
7400.000			15.593			-3.119
7501.000			15.588			-3.118
7600.000			15.587			-3.117
7700.000			15.583			-3.117
7802.000			15.580			-3.116
7901.000			15.577			-3.115
8000.000			15.573			-3.115
8101.000			15.570			-3.114
8200.000			15.567			-3.113
8300.000			15.564			-3.113
8401.000			15.561			-3.112
8500.000			15.559			-3.112
8601.000			15.555			-3.111
8702.000			15.551			-3.110
8800.000			15.548			-3.110
8900.000			15.546			-3.109
9001.000			15.543			-3.109
9100.000			15.540			-3.108
9200.000			15.538			-3.108
9302.000			15.537			-3.107
9401.000			15.535			-3.107
9501.000			15.530			-3.106
9600.000			15.527			-3.105
9700.000			15.525			-3.105
9801.000			15.522			-3.104
9900.000			15.520			-3.104
10000.000			15.518			-3.104
10102.000			15.517			-3.103
10201.000			15.512			-3.102
10300.000			15.509			-3.102
10401.000			15.508			-3.102
10500.000			15.506			-3.101
10600.000			15.504			-3.101
10701.000			15.501			-3.100
10800.000			15.499			-3.100
10901.000			15.495			-3.099
11002.000			15.493			-3.099
11100.000			15.492			-3.098
11200.000			15.490			-3.098
11301.000			15.488			-3.098
11400.000			15.486			-3.097
11500.000			15.484			-3.097
11601.000			15.481			-3.096
11701.000			15.477			-3.095
11801.000			15.476			-3.095
11901.000			15.474			-3.095
12000.000			15.474			-3.095
12100.000			15.472			-3.094
12201.000			15.469			-3.094
12300.000			15.467			-3.093
12400.000			15.464			-3.093
12502.000			15.462			-3.092
12601.000			15.460			-3.092
12702.000			15.457			-3.091
12800.000			15.456			-3.091
12900.000			15.456			-3.091
13001.000			15.455			-3.091
13100.000			15.453			-3.091
13200.000			15.449			-3.090
13302.000			15.448			-3.090
13401.000			15.447			-3.089
13501.000			15.446			-3.089
13601.000			15.443			-3.089
13700.000			15.441			-3.088
13800.000			15.439			-3.088
13901.000			15.436			-3.087
14000.000			15.434			-3.087
14100.000			15.432			-3.086
14202.000			15.432			-3.086
14301.000			15.430			-3.086
14400.000			15.429			-3.086
14501.000			15.427			-3.085
14600.000			15.424			-3.085
14700.000			15.424			-3.085
14801.000			15.421			-3.084
14901.000			15.420			-3.084
15001.000			15.418			-3.084
15101.000			15.417			-3.083
15200.000			15.416			-3.083
15300.000			15.416			-3.083
15401.000			15.412			-3.082
15500.000			15.411			-3.082
15600.000			15.410			-3.082
15702.000			15.408			-3.082
15801.000			15.406			-3.081
15901.000			15.405			-3.081
16000.000			15.404			-3.081
16100.000			15.401			-3.080
16201.000			15.400			-3.080
16300.000			15.399			-3.080
16400.000			15.397			-3.079
16502.000			15.394			-3.079
16601.000			15.394			-3.079
16701.000			15.392			-3.078
16801.000			15.390			-3.078
16900.000			15.389			-3.078
17000.000			15.387			-3.077
17101.000			15.386			-3.077
17200.000			15.386			-3.077
17301.000			15.384			-3.077
17402.000			15.382			-3.076
17501.000			15.381			-3.076
17600.000			15.379			-3.076
17701.000			15.376			-3.075
17800.000			15.376			-3.075
17900.000			15.376			-3.075
18001.000			15.375			-3.075
18101.000			15.374			-3.075
18201.000			15.373			-3.075
18302.000			15.369			-3.074
18400.000			15.368			-3.074
18500.000			15.367			-3.073
18601.000			15.365			-3.073
18700.000			15.365			-3.073
18800.000			15.364			-3.073
18902.000			15.363			-3.073
19001.000			15.361			-3.072
19102.000			15.359			-3.072
19200.000			15.358			-3.072
19300.000			15.357			-3.071
19401.000			15.356			-3.071
19500.000			15.355			-3.071
19600.000			15.354			-3.071
19701.000			15.353			-3.071
19801.000			15.350			-3.070
19901.000			15.349			-3.070
20001.000			15.349			-3.070
20100.000			15.348			-3.070
20200.000			15.346			-3.069
20301.000			15.345			-3.069
20400.000			15.344			-3.069
20500.000			15.342			-3.068
20602.000			15.341			-3.068
20701.000			15.340			-3.068
20800.000			15.339			-3.068
20901.000			15.338			-3.068
21000.000			15.338			-3.068
21100.000			15.337			-3.067
21201.000			15.335			-3.067
21301.000			15.334			-3.067
21401.000			15.333			-3.067
21501.000			15.331			-3.066
21600.000			15.328			-3.066
21700.000			15.328			-3.066
21801.000			15.328			-3.066
21900.000			15.325			-3.065
22000.000			15.326			-3.065
22102.000			15.324			-3.065
22201.000			15.322			-3.064
22301.000			15.322			-3.064
22400.000			15.322			-3.064
22500.000			15.321			-3.064
22601.000			15.320			-3.064
22700.000			15.317			-3.063
22800.000			15.317			-3.063
22902.000			15.316			-3.063
23001.000			15.316			-3.063
23100.000			15.314			-3.063
23201.000			15.313			-3.063
23300.000			15.313			-3.063
23400.000			15.312			-3.062
23501.000			15.309			-3.062
23600.000			15.308			-3.062
23701.000			15.307			-3.061
23802.000			15.308			-3.062
23900.000			15.307			-3.061
24000.000			15.306			-3.061
24101.000			15.304			-3.061
24200.000			15.303			-3.061
24300.000			15.301			-3.060
24402.000			15.301			-3.060
24501.000			15.301			-3.060
24600.000			15.299			-3.060
24701.000			15.298			-3.060
24800.000			15.298			-3.060
24900.000			15.296			-3.059
25001.000			15.295			-3.059
25100.000			15.293			-3.059
25200.000			15.292			-3.058
25302.000			15.292			-3.058
25401.000			15.292			-3.058
25501.000			15.290			-3.058
25600.000			15.289			-3.058
25700.000			15.288			-3.058
25801.000			15.287			-3.057
25900.000			15.286			-3.057
26000.000			15.286			-3.057
26102.000			15.285			-3.057
26201.000			15.284			-3.057
26300.000			15.284			-3.057
26401.000			15.282			-3.056
26500.000			15.281			-3.056
26600.000			15.280			-3.056
26701.000			15.279			-3.056
26800.000			15.278			-3.056
26901.000			15.278			-3.056
27002.000			15.277			-3.055
27100.000			15.276			-3.055
27200.000			15.274			-3.055
27301.000			15.273			-3.055
27400.000			15.273			-3.055
27500.000			15.273			-3.055
27601.000			15.272			-3.054
27701.000			15.272			-3.054
27801.000			15.269			-3.054
27901.000			15.268			-3.054
28000.000			15.267			-3.053
28100.000			15.269			-3.054
28201.000			15.268			-3.054
28300.000			15.266			-3.053
28400.000			15.265			-3.053
28502.000			15.264			-3.053
28601.000			15.262			-3.052
28701.000			15.262			-3.052
28800.000			15.262			-3.052
28900.000			15.262			-3.052
29001.000			15.261			-3.052
29100.000			15.259			-3.052
29200.000			15.259			-3.052
29302.000			15.257			-3.051
29401.000			15.257			-3.051
29500.000			15.257			-3.051
29601.000			15.255			-3.051
29700.000			15.254			-3.051
29800.000			15.254			-3.051
29901.000			15.253			-3.051
30000.000			15.251			-3.050
30101.000			15.251			-3.050
30202.000			15.250			-3.050
30300.000			15.249			-3.050
30400.000			15.249			-3.050
30501.000			15.248			-3.050
30600.000			15.246			-3.049
30700.000			15.246			-3.049
30801.000			15.245			-3.049
30901.000			15.244			-3.049
31001.000			15.244			-3.049
31101.000			15.244			-3.049
31200.000			15.243			-3.049
31300.000			15.242			-3.048
31401.000			15.242			-3.048
31500.000			15.240			-3.048
31600.000			15.239			-3.048
31702.000			15.238			-3.048
31801.000			15.236			-3.047
31901.000			15.236			-3.047
32000.000			15.237			-3.047
32100.000			15.237			-3.047
32201.000			15.236			-3.047
32300.000			15.234			-3.047
32400.000			15.234			-3.047
32502.000			15.233			-3.047
32601.000			15.232			-3.046
32700.000			15.231			-3.046
32801.000			15.231			-3.046
32900.000			15.230			-3.046
33000.000			15.229			-3.046
33101.000			15.228			-3.046
33201.000			15.227			-3.045
33301.000			15.228			-3.046
33401.000			15.227			-3.045
33500.000			15.226			-3.045
33600.000			15.225			-3.045
33701.000			15.225			-3.045
33800.000			15.224			-3.045
33900.000			15.223			-3.045
34002.000			15.221			-3.044
34101.000			15.222			-3.044
34200.000			15.221			-3.044
34301.000			15.220			-3.044
34400.000			15.220			-3.044
34500.000			15.218			-3.044
34601.000			15.218			-3.044
34701.000			15.218			-3.044
34802.000			15.218			-3.044
34901.000			15.216			-3.043
35000.000			15.215			-3.043
35101.000			15.214			-3.043
35200.000			15.214			-3.043
35300.000			15.213			-3.043
35401.000			15.212			-3.042
35501.000			15.211			-3.042
35601.000			15.210			-3.042
35701.000			15.209			-3.042
35800.000			15.209			-3.042
35900.000			15.209			-3.042
36001.000			15.209			-3.042
36100.000			15.209			-3.042
36200.000			15.207			-3.041
36302.000			15.205			-3.041
36401.000			15.204			-3.041
36500.000			15.205			-3.041
36601.000			15.204			-3.041
36700.000			15.203			-3.041
36800.000			15.202			-3.040
36901.000			15.201			-3.040
37000.000			15.201			-3.040
37101.000			15.201			-3.040
37202.000			15.201			-3.040
37300.000			15.199			-3.040
37400.000			15.199			-3.040
37501.000			15.198			-3.040
37600.000			15.197			-3.039
37700.000			15.197			-3.039
37801.000			15.197			-3.039
37901.000			15.196			-3.039
38002.000			15.195			-3.039
38100.000			15.194			-3.039
38200.000			15.194			-3.039
38301.000			15.194			-3.039
38400.000			15.194			-3.039
38500.000			15.192			-3.038
38601.000			15.192			-3.038
38701.000			15.192			-3.038
38801.000			15.191			-3.038
38901.000			15.190			-3.038
39000.000			15.190			-3.038
39100.000			15.189			-3.038
39201.000			15.189			-3.038
39300.000			15.188			-3.038
39400.000			15.188			-3.038
39502.000			15.187			-3.037
39601.000			15.186			-3.037
39700.000			15.186			-3.037
39801.000			15.184			-3.037
39900.000			15.184			-3.037
40000.000			15.182			-3.036
40101.000			15.183			-3.037
40200.000			15.183			-3.037
40301.000			15.180			-3.036
40402.000			15.180			-3.036
40500.000			15.180			-3.036
40600.000			15.179			-3.036
40701.000			15.178			-3.036
40800.000			15.177			-3.035
40900.000			15.177			-3.035
41001.000			15.178			-3.036
41101.000			15.177			-3.035
41202.000			15.176			-3.035
41300.000			15.175			-3.035
41400.000			15.174			-3.035
41501.000			15.175			-3.035
41600.000			15.175			-3.035
41700.000			15.174			-3.035
41802.000			15.172			-3.034
41901.000			15.172			-3.034
42001.000			15.171			-3.034
42101.000			15.171			-3.034
42200.000			15.171			-3.034
42300.000			15.171			-3.034
42401.000			15.170			-3.034
42500.000			15.167			-3.033
42601.000			15.167			-3.033
42702.000			15.167			-3.033
42801.000			15.167			-3.033
42900.000			15.166			-3.033
43001.000			15.166			-3.033
43100.000			15.165			-3.033
43200.000			15.164			-3.033
43301.000			15.163			-3.033
43401.000			15.162			-3.032
43501.000			15.162			-3.032
43601.000			15.162			-3.032
43700.000			15.162			-3.032
43800.000			15.161			-3.032
43901.000			15.161			-3.032
44000.000			15.160			-3.032
44100.000			15.159			-3.032
44202.000			15.159			-3.032
44301.000			15.159			-3.032
44400.000			15.158			-3.032
44500.000			15.157			-3.031
44600.000			15.157			-3.031
44701.000			15.156			-3.031
44800.000			15.156			-3.031
44900.000			15.156			-3.031
45002.000			15.155			-3.031
45101.000			15.154			-3.031
45200.000			15.155			-3.031
45301.000			15.153			-3.031
45400.000			15.153			-3.031
45500.000			15.153			-3.031
45601.000			15.152			-3.030
45700.000			15.153			-3.031
45801.000			15.152			-3.030
45902.000			15.152			-3.030
46000.000			15.151			-3.030
46100.000			15.150			-3.030
46201.000			15.149			-3.030
46300.000			15.149			-3.030
46400.000			15.147			-3.029
46501.000			15.146			-3.029
46601.000			15.147			-3.029
46701.000			15.146			-3.029
46801.000			15.146			-3.029
46900.000			15.145			-3.029
47000.000			15.145			-3.029
47101.000			15.145			-3.029
47200.000			15.144			-3.029
47300.000			15.143			-3.029
47402.000			15.143			-3.029
47501.000			15.144			-3.029
47600.000			15.142			-3.028
47700.000			15.141			-3.028
47800.000			15.141			-3.028
47901.000			15.141			-3.028
48000.000			15.140			-3.028
48100.000			15.140			-3.028
48202.000			15.140			-3.028
48301.000			15.138			-3.028
48400.000			15.139			-3.028
48501.000			15.138			-3.028
48600.000			15.137			-3.027
48700.000			15.137			-3.027
48801.000			15.136			-3.027
48900.000			15.135			-3.027
49001.000			15.135			-3.027
49102.000			15.134			-3.027
49200.000			15.134			-3.027
49300.000			15.134			-3.027
49401.000			15.133			-3.027
49500.000			15.133			-3.027
49600.000			15.132			-3.026
49701.000			15.132			-3.026
49801.000			15.132			-3.026
49901.000			15.130			-3.026
50001.000			15.129			-3.026
50100.000			15.129			-3.026
50200.000			15.129			-3.026
50301.000			15.128			-3.026
50400.000			15.128			-3.026
50500.000			15.128			-3.026
50602.000			15.127			-3.025
50701.000			15.127			-3.025
50800.000			15.127			-3.025
50900.000			15.127			-3.025
51000.000			15.125			-3.025
51101.000			15.125			-3.025
51200.000			15.125			-3.025
51301.000			15.124			-3.025
51402.000			15.124			-3.025
51500.000			15.124			-3.025
51600.000			15.122			-3.024
51701.000			15.122			-3.024
51800.000			15.122			-3.024
51900.000			15.121			-3.024
52001.000			15.121			-3.024
52101.000			15.121			-3.024
52201.000			15.121			-3.024
52301.000			15.120			-3.024
52400.000			15.119			-3.024
52500.000			15.118			-3.024
52601.000			15.118			-3.024
52700.000			15.118			-3.024
52800.000			15.117			-3.023
52902.000			15.115			-3.023
53001.000			15.116			-3.023
53100.000			15.116			-3.023
53201.000			15.115			-3.023
53300.000			15.115			-3.023
53400.000			15.115			-3.023
53501.000			15.114			-3.023
53601.000			15.112			-3.022
53701.000			15.112			-3.022
53801.000			15.113			-3.023
53900.000			15.113			-3.023
54000.000			15.112			-3.022
54100.000			15.111			-3.022
54200.000			15.111			-3.022
54301.000			15.109			-3.022
54401.000			15.110			-3.022
54501.000			15.110			-3.022
54601.000			15.109			-3.022
54700.000			15.107			-3.021
54800.000			15.107			-3.021
54901.000			15.108			-3.022
55000.000			15.107			-3.021
55100.000			15.107			-3.021
55202.000			15.106			-3.021
55301.000			15.105			-3.021
55400.000			15.106			-3.021
55501.000			15.105			-3.021
55600.000			15.105			-3.021
55700.000			15.104			-3.021
55801.000			15.104			-3.021
55900.000			15.103			-3.021
56001.000			15.103			-3.021
56102.000			15.101			-3.020
56200.000			15.101			-3.020
56300.000			15.101			-3.020
56401.000			15.102			-3.020
56500.000			15.102			-3.020
56600.000			15.101			-3.020
56702.000			15.101			-3.020
56801.000			15.100			-3.020
56900.000			15.100			-3.020
57001.000			15.098			-3.020
57100.000			15.098			-3.020
57200.000			15.098			-3.020
57300.000			15.098			-3.020
57400.000			15.098			-3.020
57502.000			15.097			-3.019
57601.000			15.096			-3.019
57701.000			15.097			-3.019
57801.000			15.097			-3.019
57900.000			15.095			-3.019
58000.000			15.094			-3.019
58101.000			15.095			-3.019
58200.000			15.095			-3.019
58300.000			15.094			-3.019
58402.000			15.093			-3.019
58501.000			15.092			-3.018
58600.000			15.092			-3.018
58701.000			15.093			-3.019
58800.000			15.092			-3.018
58900.000			15.091			-3.018
59001.000			15.091			-3.018
59100.000			15.091			-3.018
59201.000			15.091			-3.018
59302.000			15.090			-3.018
59400.000			15.088			-3.018
59500.000			15.088			-3.018
59601.000			15.088			-3.018
59700.000			15.088			-3.018
59800.000			15.088			-3.018
59901.000			15.088			-3.018
60001.000			15.087			-3.017
60101.000			15.087			-3.017
60201.000			15.086			-3.017
60300.000			15.086			-3.017
60400.000			15.086			-3.017
60500.000			15.084			-3.017
60600.000			15.084			-3.017
60701.000			15.084			-3.017
60801.000			15.084			-3.017
60901.000			15.085			-3.017
61001.000			15.083			-3.017
61100.000			15.083			-3.017
61200.000			15.082			-3.016
61301.000			15.080			-3.016
61400.000			15.080			-3.016
61500.000			15.081			-3.016
61602.000			15.080			-3.016
61701.000			15.081			-3.016
61800.000			15.081			-3.016
61901.000			15.080			-3.016
62000.000			15.080			-3.016
62100.000			15.079			-3.016
62201.000			15.079			-3.016
62301.000			15.078			-3.016
62401.000			15.078			-3.016
62502.000			15.077			-3.015
62600.000			15.078			-3.016
62700.000			15.076			-3.015
62801.000			15.076			-3.015
62900.000			15.077			-3.015
63000.000			15.076			-3.015
63101.000			15.075			-3.015
63201.000			15.075			-3.015
63301.000			15.074			-3.015
63401.000			15.074			-3.015
63500.000			15.074			-3.015
63600.000			15.073			-3.015
63700.000			15.072			-3.014
63800.000			15.070			-3.014
63901.000			15.071			-3.014
64001.000			15.071			-3.014
64101.000			15.071			-3.014
64201.000			15.071			-3.014
64300.000			15.071			-3.014
64400.000			15.069			-3.014
64501.000			15.070			-3.014
64600.000			15.068			-3.014
64701.000			15.068			-3.014
64802.000			15.068			-3.014
64900.000			15.068			-3.014
65000.000			15.067			-3.013
65101.000			15.067			-3.013
65200.000			15.067			-3.013
65300.000			15.067			-3.013
65401.000			15.066			-3.013
65501.000			15.066			-3.013
65601.000			15.065			-3.013
65701.000			15.064			-3.013
65800.000			15.064			-3.013
65900.000			15.064			-3.013
66001.000			15.064			-3.013
66100.000			15.064			-3.013
66200.000			15.064			-3.013
66302.000			15.064			-3.013
66401.000			15.063			-3.013
66501.000			15.062			-3.012
66601.000			15.062			-3.012
66700.000			15.062			-3.012
66800.000			15.061			-3.012
66900.000			15.061			-3.012
67000.000			15.060			-3.012
67101.000			15.059			-3.012
67201.000			15.060			-3.012
67301.000			15.060			-3.012
67401.000			15.059			-3.012
67500.000			15.058			-3.012
67600.000			15.058			-3.012
67701.000			15.057			-3.011
67800.000			15.057			-3.011
67900.000			15.057			-3.011
68002.000			15.057			-3.011
68101.000			15.056			-3.011
68200.000			15.056			-3.011
68301.000			15.057			-3.011
68400.000			15.056			-3.011
68500.000			15.056			-3.011
68601.000			15.055			-3.011
68700.000			15.055			-3.011
68801.000			15.055			-3.011
68902.000			15.054			-3.011
69000.000			15.053			-3.011
69100.000			15.052			-3.010
69201.000			15.053			-3.011
69300.000			15.052			-3.010
69400.000			15.052			-3.010
69501.000			15.052			-3.010
69601.000			15.051			-3.010
69701.000			15.051			-3.010
69801.000			15.050			-3.010
69900.000			15.050			-3.010
70000.000			15.050			-3.010
70100.000			15.050			-3.010
70200.000			15.050			-3.010
70301.000			15.050			-3.010
70401.000			15.048			-3.010
70501.000			15.048			-3.010
70601.000			15.048			-3.010
70700.000			15.046			-3.009
70800.000			15.046			-3.009
70901.000			15.047			-3.009
71000.000			15.046			-3.009
71100.000			15.045			-3.009
71202.000			15.045			-3.009
