# Acquired on 25/01/2024 12:06:53 
# SPIDER: Creep_-4mm_GRPCNT1454A-3
# CREEP MEASUREMENT

# time [ms]		force [N]		stiffness [N/mm]
0.000			16.661			-4.165
105.000			17.370			-4.343
204.000			17.475			-4.369
304.000			17.321			-4.330
405.000			17.090			-4.273
504.000			17.009			-4.252
604.000			16.940			-4.235
705.000			16.879			-4.220
804.000			16.825			-4.206
904.000			16.778			-4.195
1004.000			16.734			-4.184
1104.000			16.694			-4.174
1204.000			16.623			-4.156
1305.000			16.591			-4.148
1404.000			16.561			-4.140
1504.000			16.534			-4.133
1605.000			16.507			-4.127
1703.000			16.482			-4.121
1804.000			16.459			-4.115
1905.000			16.416			-4.104
2004.000			16.396			-4.099
2104.000			16.376			-4.094
2204.000			16.358			-4.090
2304.000			16.340			-4.085
2404.000			16.322			-4.080
2505.000			16.306			-4.076
2604.000			16.275			-4.069
2705.000			16.261			-4.065
2804.000			16.246			-4.062
2903.000			16.232			-4.058
3005.000			16.220			-4.055
3104.000			16.207			-4.052
3204.000			16.194			-4.048
3305.000			16.170			-4.042
3404.000			16.158			-4.039
3504.000			16.147			-4.037
3605.000			16.135			-4.034
3704.000			16.125			-4.031
3804.000			16.116			-4.029
3905.000			16.105			-4.026
4004.000			16.094			-4.024
4103.000			16.075			-4.019
4205.000			16.066			-4.017
4304.000			16.057			-4.014
4404.000			16.048			-4.012
4505.000			16.039			-4.010
4603.000			16.031			-4.008
4704.000			16.023			-4.006
4805.000			16.008			-4.002
4904.000			15.999			-4.000
5004.000			15.990			-3.998
5105.000			15.982			-3.996
5204.000			15.976			-3.994
5303.000			15.969			-3.992
5405.000			15.961			-3.990
5504.000			15.947			-3.987
5604.000			15.940			-3.985
5705.000			15.933			-3.983
5804.000			15.926			-3.982
5905.000			15.920			-3.980
6003.000			15.914			-3.978
6104.000			15.909			-3.977
6205.000			15.896			-3.974
6304.000			15.890			-3.972
6404.000			15.883			-3.971
6505.000			15.877			-3.969
6604.000			15.872			-3.968
6703.000			15.866			-3.967
6805.000			15.861			-3.965
6904.000			15.856			-3.964
7004.000			15.845			-3.961
7105.000			15.840			-3.960
7203.000			15.834			-3.958
7304.000			15.829			-3.957
7405.000			15.824			-3.956
7504.000			15.819			-3.955
7604.000			15.814			-3.953
7705.000			15.803			-3.951
7804.000			15.798			-3.950
7903.000			15.794			-3.949
8005.000			15.789			-3.947
8104.000			15.785			-3.946
8204.000			15.780			-3.945
8305.000			15.775			-3.944
8404.000			15.768			-3.942
8504.000			15.762			-3.941
8604.000			15.758			-3.939
8704.000			15.754			-3.939
8804.000			15.750			-3.937
8905.000			15.745			-3.936
9004.000			15.741			-3.935
9105.000			15.737			-3.934
9204.000			15.729			-3.932
9303.000			15.724			-3.931
9405.000			15.720			-3.930
9504.000			15.717			-3.929
9604.000			15.713			-3.928
9705.000			15.710			-3.927
9803.000			15.705			-3.926
9904.000			15.697			-3.924
10005.000			15.693			-3.923
10104.000			15.690			-3.922
10204.000			15.687			-3.922
10305.000			15.683			-3.921
10404.000			15.680			-3.920
10503.000			15.676			-3.919
10605.000			15.668			-3.917
10704.000			15.665			-3.916
10804.000			15.662			-3.915
10905.000			15.658			-3.915
11004.000			15.654			-3.913
11104.000			15.651			-3.913
11204.000			15.648			-3.912
11304.000			15.644			-3.911
11404.000			15.639			-3.910
11505.000			15.636			-3.909
11604.000			15.632			-3.908
11704.000			15.629			-3.907
11805.000			15.625			-3.906
11903.000			15.622			-3.906
12004.000			15.619			-3.905
12105.000			15.612			-3.903
12204.000			15.609			-3.902
12305.000			15.607			-3.902
12404.000			15.604			-3.901
12504.000			15.601			-3.900
12604.000			15.598			-3.900
12704.000			15.595			-3.899
12804.000			15.591			-3.898
12905.000			15.587			-3.897
13004.000			15.585			-3.896
13103.000			15.582			-3.895
13205.000			15.579			-3.895
13304.000			15.576			-3.894
13404.000			15.573			-3.893
13505.000			15.569			-3.892
13604.000			15.566			-3.891
13704.000			15.563			-3.891
13804.000			15.560			-3.890
13904.000			15.557			-3.889
14003.000			15.555			-3.889
14105.000			15.551			-3.888
14204.000			15.549			-3.887
14304.000			15.545			-3.886
14405.000			15.541			-3.885
14503.000			15.539			-3.885
14604.000			15.537			-3.884
14705.000			15.534			-3.883
14804.000			15.531			-3.883
14904.000			15.530			-3.882
15005.000			15.525			-3.881
15104.000			15.522			-3.880
15203.000			15.519			-3.880
15305.000			15.517			-3.879
15404.000			15.514			-3.879
15505.000			15.511			-3.878
15604.000			15.510			-3.877
15704.000			15.506			-3.876
15805.000			15.504			-3.876
15903.000			15.502			-3.875
16004.000			15.498			-3.874
16105.000			15.496			-3.874
16204.000			15.494			-3.874
16304.000			15.491			-3.873
16405.000			15.486			-3.872
16504.000			15.484			-3.871
16603.000			15.482			-3.870
16705.000			15.480			-3.870
16804.000			15.478			-3.869
16904.000			15.475			-3.869
17005.000			15.474			-3.868
17104.000			15.472			-3.868
17204.000			15.468			-3.867
17304.000			15.466			-3.866
17404.000			15.463			-3.866
17504.000			15.462			-3.865
17605.000			15.459			-3.865
17704.000			15.457			-3.864
17804.000			15.455			-3.864
17905.000			15.451			-3.863
18003.000			15.449			-3.862
18104.000			15.448			-3.862
18205.000			15.445			-3.861
18304.000			15.443			-3.861
18404.000			15.443			-3.861
18504.000			15.440			-3.860
18604.000			15.436			-3.859
18705.000			15.434			-3.859
18804.000			15.433			-3.858
18904.000			15.431			-3.858
19005.000			15.428			-3.857
19104.000			15.426			-3.857
19203.000			15.425			-3.856
19305.000			15.423			-3.856
19404.000			15.419			-3.855
19504.000			15.418			-3.854
19605.000			15.416			-3.854
19704.000			15.413			-3.853
19804.000			15.411			-3.853
19904.000			15.409			-3.852
20004.000			15.408			-3.852
20104.000			15.404			-3.851
20205.000			15.401			-3.850
20304.000			15.401			-3.850
20404.000			15.399			-3.850
20505.000			15.397			-3.849
20603.000			15.395			-3.849
20704.000			15.393			-3.848
20805.000			15.391			-3.848
20904.000			15.388			-3.847
21004.000			15.387			-3.847
21105.000			15.386			-3.846
21204.000			15.384			-3.846
21303.000			15.383			-3.846
21405.000			15.380			-3.845
21504.000			15.377			-3.844
21604.000			15.375			-3.844
21705.000			15.373			-3.843
21803.000			15.372			-3.843
21905.000			15.370			-3.843
22004.000			15.369			-3.842
22104.000			15.367			-3.842
22205.000			15.366			-3.842
22304.000			15.362			-3.840
22404.000			15.361			-3.840
22504.000			15.360			-3.840
22604.000			15.358			-3.839
22704.000			15.356			-3.839
22805.000			15.355			-3.839
22904.000			15.353			-3.838
23004.000			15.351			-3.838
23105.000			15.350			-3.837
23203.000			15.348			-3.837
23304.000			15.345			-3.836
23405.000			15.344			-3.836
23504.000			15.344			-3.836
23604.000			15.341			-3.835
23704.000			15.338			-3.834
23804.000			15.336			-3.834
23903.000			15.335			-3.834
24005.000			15.333			-3.833
24104.000			15.332			-3.833
24204.000			15.331			-3.833
24305.000			15.331			-3.833
24403.000			15.329			-3.832
24504.000			15.325			-3.831
24605.000			15.323			-3.831
24704.000			15.321			-3.830
24804.000			15.321			-3.830
24905.000			15.320			-3.830
25004.000			15.319			-3.830
25103.000			15.317			-3.829
25204.000			15.314			-3.828
25304.000			15.312			-3.828
25405.000			15.311			-3.828
25504.000			15.311			-3.828
25604.000			15.310			-3.827
25705.000			15.308			-3.827
25803.000			15.306			-3.827
25904.000			15.304			-3.826
26005.000			15.303			-3.826
26104.000			15.300			-3.825
26204.000			15.299			-3.825
26304.000			15.298			-3.824
26404.000			15.296			-3.824
26504.000			15.295			-3.824
26605.000			15.291			-3.823
26704.000			15.290			-3.822
26804.000			15.288			-3.822
26905.000			15.286			-3.822
27003.000			15.286			-3.821
27104.000			15.285			-3.821
27205.000			15.284			-3.821
27304.000			15.283			-3.821
27404.000			15.279			-3.820
27505.000			15.278			-3.819
27604.000			15.277			-3.819
27703.000			15.276			-3.819
27805.000			15.274			-3.818
27904.000			15.271			-3.818
28004.000			15.270			-3.817
28105.000			15.269			-3.817
28204.000			15.268			-3.817
28305.000			15.265			-3.816
28403.000			15.264			-3.816
28504.000			15.264			-3.816
28605.000			15.262			-3.816
28704.000			15.262			-3.815
28804.000			15.259			-3.815
28905.000			15.257			-3.814
29004.000			15.255			-3.814
29103.000			15.255			-3.814
29205.000			15.254			-3.813
29304.000			15.252			-3.813
29404.000			15.252			-3.813
29505.000			15.250			-3.813
29604.000			15.248			-3.812
29704.000			15.247			-3.812
29804.000			15.245			-3.811
29904.000			15.244			-3.811
30004.000			15.243			-3.811
30105.000			15.242			-3.810
30204.000			15.241			-3.810
30304.000			15.239			-3.810
30405.000			15.238			-3.809
30503.000			15.236			-3.809
30604.000			15.234			-3.809
30705.000			15.233			-3.808
30804.000			15.233			-3.808
30904.000			15.232			-3.808
31005.000			15.228			-3.807
31104.000			15.227			-3.807
31203.000			15.227			-3.807
31305.000			15.226			-3.807
31404.000			15.225			-3.806
31505.000			15.224			-3.806
31604.000			15.223			-3.806
31703.000			15.222			-3.805
31805.000			15.218			-3.804
31904.000			15.217			-3.804
32004.000			15.217			-3.804
32105.000			15.215			-3.804
32204.000			15.214			-3.804
32304.000			15.213			-3.803
32404.000			15.211			-3.803
32504.000			15.209			-3.802
32604.000			15.208			-3.802
32705.000			15.207			-3.802
32804.000			15.206			-3.802
32904.000			15.206			-3.801
33005.000			15.205			-3.801
33103.000			15.204			-3.801
33204.000			15.200			-3.800
33305.000			15.199			-3.800
33404.000			15.199			-3.800
33504.000			15.198			-3.799
33604.000			15.197			-3.799
33704.000			15.196			-3.799
33803.000			15.194			-3.799
33905.000			15.193			-3.798
34004.000			15.192			-3.798
34104.000			15.191			-3.798
34205.000			15.189			-3.797
34303.000			15.188			-3.797
34404.000			15.188			-3.797
34505.000			15.187			-3.797
34604.000			15.186			-3.797
34705.000			15.182			-3.796
34804.000			15.181			-3.795
34904.000			15.181			-3.795
35004.000			15.181			-3.795
35104.000			15.181			-3.795
35204.000			15.179			-3.795
35305.000			15.178			-3.794
35404.000			15.176			-3.794
35504.000			15.175			-3.794
35605.000			15.174			-3.793
35703.000			15.173			-3.793
35804.000			15.172			-3.793
35905.000			15.171			-3.793
36004.000			15.171			-3.793
36104.000			15.169			-3.792
36205.000			15.168			-3.792
36304.000			15.167			-3.792
36403.000			15.166			-3.792
36505.000			15.166			-3.791
36604.000			15.165			-3.791
36704.000			15.164			-3.791
36805.000			15.161			-3.790
36904.000			15.161			-3.790
37004.000			15.160			-3.790
37104.000			15.159			-3.790
37204.000			15.158			-3.790
37304.000			15.157			-3.789
37405.000			15.155			-3.789
37504.000			15.155			-3.789
37604.000			15.152			-3.788
37705.000			15.151			-3.788
37803.000			15.151			-3.788
37905.000			15.150			-3.787
38004.000			15.149			-3.787
38104.000			15.149			-3.787
38205.000			15.147			-3.787
38304.000			15.144			-3.786
38404.000			15.143			-3.786
38504.000			15.144			-3.786
38604.000			15.142			-3.786
38704.000			15.142			-3.786
38805.000			15.141			-3.785
38904.000			15.139			-3.785
39003.000			15.138			-3.784
39105.000			15.136			-3.784
39204.000			15.135			-3.784
39304.000			15.135			-3.784
39405.000			15.134			-3.784
39504.000			15.133			-3.783
39604.000			15.133			-3.783
39704.000			15.131			-3.783
39804.000			15.130			-3.782
39904.000			15.128			-3.782
40005.000			15.128			-3.782
40104.000			15.128			-3.782
40204.000			15.126			-3.781
40305.000			15.124			-3.781
40403.000			15.123			-3.781
40504.000			15.123			-3.781
40605.000			15.122			-3.780
40704.000			15.120			-3.780
40804.000			15.119			-3.780
40905.000			15.119			-3.780
41004.000			15.118			-3.779
41103.000			15.117			-3.779
41204.000			15.115			-3.779
41304.000			15.115			-3.779
41405.000			15.114			-3.778
41504.000			15.113			-3.778
41603.000			15.111			-3.778
41705.000			15.110			-3.778
41804.000			15.110			-3.778
41904.000			15.109			-3.777
42005.000			15.107			-3.777
42104.000			15.106			-3.777
42204.000			15.106			-3.776
42304.000			15.104			-3.776
42404.000			15.104			-3.776
42504.000			15.102			-3.776
42605.000			15.101			-3.775
42704.000			15.101			-3.775
42803.000			15.101			-3.775
42905.000			15.099			-3.775
43004.000			15.097			-3.774
43104.000			15.096			-3.774
43205.000			15.096			-3.774
43304.000			15.095			-3.774
43404.000			15.093			-3.773
43504.000			15.093			-3.773
43604.000			15.093			-3.773
43704.000			15.092			-3.773
43805.000			15.091			-3.773
43904.000			15.090			-3.773
44004.000			15.089			-3.772
44105.000			15.088			-3.772
44203.000			15.088			-3.772
44305.000			15.086			-3.771
44404.000			15.085			-3.771
44504.000			15.086			-3.771
44605.000			15.085			-3.771
44704.000			15.082			-3.770
44804.000			15.081			-3.770
44904.000			15.080			-3.770
45004.000			15.079			-3.770
45104.000			15.079			-3.770
45205.000			15.079			-3.770
45304.000			15.078			-3.770
45404.000			15.077			-3.769
45505.000			15.076			-3.769
45603.000			15.075			-3.769
45704.000			15.073			-3.768
45805.000			15.071			-3.768
45904.000			15.071			-3.768
46004.000			15.071			-3.768
46104.000			15.070			-3.767
46204.000			15.070			-3.767
46303.000			15.069			-3.767
46405.000			15.067			-3.767
46504.000			15.066			-3.767
46604.000			15.067			-3.767
46705.000			15.066			-3.766
46803.000			15.064			-3.766
46904.000			15.064			-3.766
47005.000			15.063			-3.766
47104.000			15.061			-3.765
47204.000			15.061			-3.765
47305.000			15.061			-3.765
47404.000			15.059			-3.765
47503.000			15.058			-3.765
47604.000			15.058			-3.765
47704.000			15.058			-3.764
47805.000			15.056			-3.764
47904.000			15.055			-3.764
48004.000			15.054			-3.764
48105.000			15.054			-3.763
48203.000			15.052			-3.763
48304.000			15.052			-3.763
48405.000			15.051			-3.763
48504.000			15.050			-3.763
48604.000			15.050			-3.763
48705.000			15.049			-3.762
48804.000			15.048			-3.762
48903.000			15.047			-3.762
49005.000			15.047			-3.762
49104.000			15.045			-3.761
49204.000			15.046			-3.761
49305.000			15.045			-3.761
49404.000			15.044			-3.761
49504.000			15.042			-3.760
49604.000			15.041			-3.760
49704.000			15.041			-3.760
49804.000			15.040			-3.760
49905.000			15.040			-3.760
50004.000			15.037			-3.759
50104.000			15.037			-3.759
50205.000			15.036			-3.759
50303.000			15.035			-3.759
50404.000			15.035			-3.759
50505.000			15.035			-3.759
50604.000			15.034			-3.758
50705.000			15.032			-3.758
50803.000			15.031			-3.758
50904.000			15.031			-3.758
51005.000			15.030			-3.758
51104.000			15.029			-3.757
51204.000			15.029			-3.757
51305.000			15.028			-3.757
51404.000			15.028			-3.757
51503.000			15.027			-3.757
51605.000			15.026			-3.756
51704.000			15.024			-3.756
51804.000			15.023			-3.756
51905.000			15.023			-3.756
52004.000			15.022			-3.755
52104.000			15.021			-3.755
52204.000			15.020			-3.755
52304.000			15.020			-3.755
52404.000			15.019			-3.755
52505.000			15.018			-3.755
52604.000			15.017			-3.754
52703.000			15.015			-3.754
52805.000			15.016			-3.754
52904.000			15.015			-3.754
53004.000			15.014			-3.753
53105.000			15.013			-3.753
53204.000			15.012			-3.753
53304.000			15.012			-3.753
53404.000			15.012			-3.753
53504.000			15.011			-3.753
53604.000			15.011			-3.753
53705.000			15.009			-3.752
53804.000			15.008			-3.752
53903.000			15.007			-3.752
54004.000			15.007			-3.752
54104.000			15.006			-3.752
54205.000			15.005			-3.751
54304.000			15.005			-3.751
54404.000			15.004			-3.751
54505.000			15.004			-3.751
54603.000			15.001			-3.750
54704.000			15.001			-3.750
54805.000			15.001			-3.750
54904.000			15.001			-3.750
55004.000			15.000			-3.750
55105.000			14.999			-3.750
55204.000			14.998			-3.750
55303.000			14.997			-3.749
55405.000			14.997			-3.749
55504.000			14.996			-3.749
55604.000			14.995			-3.749
55705.000			14.994			-3.748
55804.000			14.994			-3.749
55904.000			14.993			-3.748
56004.000			14.992			-3.748
56104.000			14.992			-3.748
56204.000			14.992			-3.748
56305.000			14.991			-3.748
56404.000			14.990			-3.748
56504.000			14.990			-3.747
56605.000			14.989			-3.747
56703.000			14.989			-3.747
56804.000			14.987			-3.747
56905.000			14.986			-3.747
57004.000			14.986			-3.746
57105.000			14.985			-3.746
57204.000			14.984			-3.746
57304.000			14.983			-3.746
57404.000			14.983			-3.746
57504.000			14.982			-3.746
57604.000			14.981			-3.745
57705.000			14.981			-3.745
57804.000			14.980			-3.745
57904.000			14.979			-3.745
58005.000			14.978			-3.745
58103.000			14.978			-3.745
58204.000			14.978			-3.744
58305.000			14.977			-3.744
58404.000			14.976			-3.744
58504.000			14.976			-3.744
58605.000			14.976			-3.744
58704.000			14.974			-3.743
58803.000			14.974			-3.743
58905.000			14.974			-3.743
59004.000			14.972			-3.743
59104.000			14.972			-3.743
59205.000			14.972			-3.743
59304.000			14.972			-3.743
59404.000			14.970			-3.743
59504.000			14.969			-3.742
59604.000			14.969			-3.742
59704.000			14.968			-3.742
59805.000			14.968			-3.742
59904.000			14.967			-3.742
60004.000			14.966			-3.742
60105.000			14.966			-3.742
60203.000			14.964			-3.741
60305.000			14.964			-3.741
60404.000			14.963			-3.741
60504.000			14.963			-3.741
60605.000			14.962			-3.741
60704.000			14.961			-3.740
60804.000			14.960			-3.740
60904.000			14.959			-3.740
61004.000			14.959			-3.740
61104.000			14.959			-3.740
61205.000			14.958			-3.740
61304.000			14.957			-3.739
61404.000			14.957			-3.739
61505.000			14.956			-3.739
61603.000			14.954			-3.739
61704.000			14.954			-3.738
61805.000			14.954			-3.738
61904.000			14.953			-3.738
62004.000			14.953			-3.738
62105.000			14.953			-3.738
62204.000			14.951			-3.738
62303.000			14.952			-3.738
62405.000			14.949			-3.737
62504.000			14.950			-3.737
62604.000			14.949			-3.737
62705.000			14.949			-3.737
62804.000			14.948			-3.737
62904.000			14.947			-3.737
63004.000			14.946			-3.737
63104.000			14.945			-3.736
63203.000			14.944			-3.736
63305.000			14.944			-3.736
63404.000			14.943			-3.736
63505.000			14.942			-3.736
63604.000			14.943			-3.736
63704.000			14.942			-3.736
63805.000			14.942			-3.736
63903.000			14.941			-3.735
64004.000			14.940			-3.735
64105.000			14.939			-3.735
64204.000			14.938			-3.735
64304.000			14.938			-3.734
64405.000			14.938			-3.735
64504.000			14.938			-3.735
64603.000			14.936			-3.734
64705.000			14.935			-3.734
64804.000			14.935			-3.734
64904.000			14.935			-3.734
65005.000			14.934			-3.733
65104.000			14.934			-3.734
65204.000			14.933			-3.733
65304.000			14.932			-3.733
65404.000			14.932			-3.733
65504.000			14.931			-3.733
65605.000			14.929			-3.732
65704.000			14.928			-3.732
65803.000			14.928			-3.732
65905.000			14.929			-3.732
66003.000			14.928			-3.732
66104.000			14.927			-3.732
66205.000			14.926			-3.732
66304.000			14.926			-3.731
66404.000			14.926			-3.731
66505.000			14.926			-3.732
66604.000			14.925			-3.731
66703.000			14.924			-3.731
66804.000			14.921			-3.730
66904.000			14.922			-3.730
67005.000			14.922			-3.730
67104.000			14.922			-3.731
67204.000			14.921			-3.730
67305.000			14.921			-3.730
67403.000			14.920			-3.730
67504.000			14.919			-3.730
67605.000			14.919			-3.730
67704.000			14.919			-3.730
67804.000			14.917			-3.729
67905.000			14.917			-3.729
68004.000			14.917			-3.729
68103.000			14.915			-3.729
68205.000			14.914			-3.729
68304.000			14.914			-3.728
68404.000			14.914			-3.728
68505.000			14.913			-3.728
68604.000			14.912			-3.728
68704.000			14.911			-3.728
68804.000			14.911			-3.728
68904.000			14.909			-3.727
69004.000			14.909			-3.727
69105.000			14.909			-3.727
69204.000			14.909			-3.727
69304.000			14.908			-3.727
69405.000			14.908			-3.727
69503.000			14.908			-3.727
69604.000			14.907			-3.727
69705.000			14.906			-3.727
69804.000			14.906			-3.726
69905.000			14.905			-3.726
70004.000			14.905			-3.726
70104.000			14.904			-3.726
70204.000			14.903			-3.726
70304.000			14.904			-3.726
70404.000			14.902			-3.725
70505.000			14.901			-3.725
70604.000			14.901			-3.725
70704.000			14.900			-3.725
70805.000			14.900			-3.725
70903.000			14.900			-3.725
71004.000			14.900			-3.725
71105.000			14.898			-3.725
71204.000			14.898			-3.724
