# Acquired on 21/12/2023 12:41:02 
# SPIDER: Creep_-7mm_07714532C-2
# CREEP MEASUREMENT

# time [ms]		force [N]		stiffness [N/mm]
0.000			19.613			-2.802
102.000			20.795			-2.971
201.000			21.299			-3.043
300.000			21.354			-3.051
401.000			21.196			-3.028
500.000			21.140			-3.020
600.000			21.090			-3.013
701.000			21.047			-3.007
801.000			21.010			-3.001
901.000			20.978			-2.997
1001.000			20.948			-2.993
1100.000			20.893			-2.985
1200.000			20.869			-2.981
1300.000			20.847			-2.978
1400.000			20.827			-2.975
1501.000			20.806			-2.972
1601.000			20.787			-2.970
1701.000			20.769			-2.967
1801.000			20.737			-2.962
1900.000			20.723			-2.960
2000.000			20.707			-2.958
2101.000			20.692			-2.956
2200.000			20.679			-2.954
2300.000			20.666			-2.952
2402.000			20.653			-2.950
2501.000			20.641			-2.949
2600.000			20.618			-2.945
2701.000			20.607			-2.944
2800.000			20.595			-2.942
2900.000			20.585			-2.941
3001.000			20.575			-2.939
3101.000			20.565			-2.938
3201.000			20.555			-2.936
3301.000			20.538			-2.934
3400.000			20.530			-2.933
3500.000			20.520			-2.931
3601.000			20.511			-2.930
3700.000			20.504			-2.929
3800.000			20.495			-2.928
3902.000			20.486			-2.927
4001.000			20.471			-2.924
4100.000			20.464			-2.923
4201.000			20.457			-2.922
4300.000			20.450			-2.921
4400.000			20.443			-2.920
4500.000			20.435			-2.919
4601.000			20.429			-2.918
4702.000			20.416			-2.917
4800.000			20.410			-2.916
4900.000			20.404			-2.915
5001.000			20.397			-2.914
5100.000			20.390			-2.913
5200.000			20.384			-2.912
5301.000			20.379			-2.911
5401.000			20.373			-2.910
5501.000			20.360			-2.909
5601.000			20.355			-2.908
5700.000			20.350			-2.907
5800.000			20.345			-2.906
5901.000			20.338			-2.905
6000.000			20.334			-2.905
6101.000			20.329			-2.904
6202.000			20.319			-2.903
6300.000			20.313			-2.902
6400.000			20.309			-2.901
6501.000			20.305			-2.901
6600.000			20.299			-2.900
6700.000			20.295			-2.899
6801.000			20.290			-2.899
6901.000			20.281			-2.897
7001.000			20.277			-2.897
7101.000			20.272			-2.896
7200.000			20.268			-2.895
7300.000			20.264			-2.895
7401.000			20.259			-2.894
7500.000			20.254			-2.893
7600.000			20.251			-2.893
7702.000			20.243			-2.892
7801.000			20.239			-2.891
7901.000			20.235			-2.891
8000.000			20.231			-2.890
8100.000			20.227			-2.890
8201.000			20.223			-2.889
8300.000			20.219			-2.888
8401.000			20.211			-2.887
8502.000			20.208			-2.887
8600.000			20.204			-2.886
8700.000			20.201			-2.886
8801.000			20.196			-2.885
8900.000			20.193			-2.885
9000.000			20.190			-2.884
9101.000			20.183			-2.883
9201.000			20.179			-2.883
9301.000			20.176			-2.882
9401.000			20.173			-2.882
9500.000			20.169			-2.881
9600.000			20.165			-2.881
9701.000			20.162			-2.880
9800.000			20.159			-2.880
9901.000			20.153			-2.879
10002.000			20.149			-2.878
10100.000			20.146			-2.878
10200.000			20.143			-2.878
10301.000			20.140			-2.877
10400.000			20.137			-2.877
10500.000			20.135			-2.876
10601.000			20.127			-2.875
10701.000			20.123			-2.875
10802.000			20.121			-2.874
10900.000			20.118			-2.874
11000.000			20.116			-2.874
11101.000			20.112			-2.873
11200.000			20.109			-2.873
11300.000			20.104			-2.872
11402.000			20.102			-2.872
11501.000			20.098			-2.871
11600.000			20.095			-2.871
11701.000			20.093			-2.870
11800.000			20.091			-2.870
11900.000			20.089			-2.870
12001.000			20.083			-2.869
12100.000			20.080			-2.869
12201.000			20.078			-2.868
12302.000			20.075			-2.868
12400.000			20.072			-2.867
12500.000			20.069			-2.867
12601.000			20.066			-2.867
12700.000			20.063			-2.866
12800.000			20.058			-2.865
12901.000			20.056			-2.865
13001.000			20.054			-2.865
13101.000			20.053			-2.865
13201.000			20.050			-2.864
13300.000			20.048			-2.864
13400.000			20.044			-2.863
13501.000			20.039			-2.863
13600.000			20.038			-2.863
13701.000			20.036			-2.862
13802.000			20.033			-2.862
13900.000			20.031			-2.862
14000.000			20.028			-2.861
14100.000			20.025			-2.861
14200.000			20.021			-2.860
14301.000			20.018			-2.860
14400.000			20.016			-2.859
14501.000			20.014			-2.859
14602.000			20.013			-2.859
14700.000			20.010			-2.859
14800.000			20.008			-2.858
14901.000			20.005			-2.858
15000.000			20.003			-2.858
15100.000			20.001			-2.857
15202.000			19.999			-2.857
15301.000			19.997			-2.857
15401.000			19.995			-2.856
15501.000			19.992			-2.856
15600.000			19.989			-2.856
15700.000			19.985			-2.855
15801.000			19.984			-2.855
15900.000			19.983			-2.855
16000.000			19.980			-2.854
16102.000			19.978			-2.854
16201.000			19.975			-2.854
16300.000			19.973			-2.853
16401.000			19.968			-2.853
16500.000			19.967			-2.852
16600.000			19.966			-2.852
16701.000			19.964			-2.852
16800.000			19.961			-2.852
16900.000			19.959			-2.851
17002.000			19.957			-2.851
17101.000			19.953			-2.850
17200.000			19.952			-2.850
17300.000			19.950			-2.850
17400.000			19.948			-2.850
17501.000			19.946			-2.849
17600.000			19.944			-2.849
17700.000			19.941			-2.849
17802.000			19.940			-2.849
17901.000			19.935			-2.848
18000.000			19.936			-2.848
18101.000			19.933			-2.848
18200.000			19.929			-2.847
18300.000			19.928			-2.847
18401.000			19.928			-2.847
18500.000			19.927			-2.847
18601.000			19.923			-2.846
18702.000			19.921			-2.846
18800.000			19.919			-2.846
18900.000			19.917			-2.845
19001.000			19.915			-2.845
19100.000			19.913			-2.845
19200.000			19.912			-2.845
19301.000			19.909			-2.844
19401.000			19.907			-2.844
19501.000			19.905			-2.844
19601.000			19.904			-2.843
19700.000			19.902			-2.843
19800.000			19.900			-2.843
19901.000			19.898			-2.843
20000.000			19.897			-2.842
20100.000			19.894			-2.842
20202.000			19.892			-2.842
20301.000			19.891			-2.842
20402.000			19.891			-2.842
20500.000			19.888			-2.841
20600.000			19.885			-2.841
20701.000			19.884			-2.841
20800.000			19.881			-2.840
20900.000			19.880			-2.840
21001.000			19.878			-2.840
21101.000			19.876			-2.839
21201.000			19.875			-2.839
21301.000			19.874			-2.839
21400.000			19.872			-2.839
21500.000			19.869			-2.838
21601.000			19.867			-2.838
21700.000			19.865			-2.838
21800.000			19.863			-2.838
21902.000			19.862			-2.837
22001.000			19.861			-2.837
22100.000			19.860			-2.837
22201.000			19.857			-2.837
22300.000			19.855			-2.836
22400.000			19.853			-2.836
22501.000			19.851			-2.836
22600.000			19.851			-2.836
22701.000			19.849			-2.836
22802.000			19.847			-2.835
22900.000			19.847			-2.835
23000.000			19.844			-2.835
23101.000			19.843			-2.835
23200.000			19.841			-2.834
23300.000			19.840			-2.834
23401.000			19.838			-2.834
23501.000			19.837			-2.834
23602.000			19.836			-2.834
23701.000			19.833			-2.833
23800.000			19.832			-2.833
23901.000			19.831			-2.833
24000.000			19.829			-2.833
24100.000			19.828			-2.833
24201.000			19.826			-2.832
24301.000			19.824			-2.832
24401.000			19.822			-2.832
24502.000			19.821			-2.832
24600.000			19.820			-2.831
24700.000			19.817			-2.831
24801.000			19.815			-2.831
24900.000			19.815			-2.831
25000.000			19.813			-2.830
25101.000			19.813			-2.830
25201.000			19.809			-2.830
25301.000			19.809			-2.830
25401.000			19.807			-2.830
25500.000			19.805			-2.829
25600.000			19.803			-2.829
25701.000			19.802			-2.829
25800.000			19.801			-2.829
25900.000			19.800			-2.829
26002.000			19.798			-2.828
26101.000			19.797			-2.828
26200.000			19.795			-2.828
26301.000			19.793			-2.828
26400.000			19.793			-2.828
26500.000			19.791			-2.827
26601.000			19.789			-2.827
26700.000			19.786			-2.827
26802.000			19.785			-2.826
26901.000			19.784			-2.826
27001.000			19.782			-2.826
27101.000			19.781			-2.826
27200.000			19.780			-2.826
27300.000			19.778			-2.825
27401.000			19.778			-2.825
27500.000			19.777			-2.825
27600.000			19.775			-2.825
27702.000			19.773			-2.825
27801.000			19.772			-2.825
27900.000			19.771			-2.824
28001.000			19.770			-2.824
28100.000			19.767			-2.824
28200.000			19.767			-2.824
28301.000			19.765			-2.824
28400.000			19.764			-2.823
28501.000			19.763			-2.823
28602.000			19.762			-2.823
28700.000			19.761			-2.823
28800.000			19.757			-2.822
28901.000			19.757			-2.822
29000.000			19.757			-2.822
29100.000			19.755			-2.822
29201.000			19.753			-2.822
29300.000			19.753			-2.822
29401.000			19.752			-2.822
29502.000			19.749			-2.821
29600.000			19.747			-2.821
29700.000			19.747			-2.821
29801.000			19.746			-2.821
29900.000			19.744			-2.821
30000.000			19.743			-2.820
30100.000			19.743			-2.820
30201.000			19.742			-2.820
30302.000			19.739			-2.820
30400.000			19.738			-2.820
30500.000			19.738			-2.820
30601.000			19.736			-2.819
30700.000			19.734			-2.819
30800.000			19.734			-2.819
30901.000			19.733			-2.819
31001.000			19.731			-2.819
31101.000			19.730			-2.819
31201.000			19.728			-2.818
31300.000			19.728			-2.818
31400.000			19.726			-2.818
31501.000			19.726			-2.818
31600.000			19.724			-2.818
31700.000			19.723			-2.818
31802.000			19.721			-2.817
31901.000			19.720			-2.817
32000.000			19.719			-2.817
32101.000			19.718			-2.817
32200.000			19.717			-2.817
32300.000			19.716			-2.817
32401.000			19.715			-2.816
32500.000			19.714			-2.816
32601.000			19.713			-2.816
32702.000			19.712			-2.816
32801.000			19.710			-2.816
32900.000			19.709			-2.816
33001.000			19.709			-2.816
33100.000			19.707			-2.815
33200.000			19.705			-2.815
33300.000			19.703			-2.815
33400.000			19.702			-2.815
33502.000			19.701			-2.814
33601.000			19.701			-2.814
33700.000			19.699			-2.814
33801.000			19.698			-2.814
33900.000			19.697			-2.814
34000.000			19.696			-2.814
34101.000			19.694			-2.813
34200.000			19.694			-2.813
34301.000			19.693			-2.813
34402.000			19.692			-2.813
34500.000			19.691			-2.813
34600.000			19.690			-2.813
34701.000			19.688			-2.813
34800.000			19.687			-2.812
34900.000			19.685			-2.812
35001.000			19.684			-2.812
35101.000			19.684			-2.812
35201.000			19.683			-2.812
35301.000			19.682			-2.812
35400.000			19.681			-2.812
35500.000			19.681			-2.812
35601.000			19.680			-2.811
35700.000			19.678			-2.811
35800.000			19.677			-2.811
35902.000			19.677			-2.811
36001.000			19.675			-2.811
36101.000			19.673			-2.810
36201.000			19.672			-2.810
36300.000			19.671			-2.810
36400.000			19.670			-2.810
36500.000			19.670			-2.810
36600.000			19.668			-2.810
36701.000			19.667			-2.810
36801.000			19.667			-2.810
36901.000			19.666			-2.809
37001.000			19.664			-2.809
37100.000			19.662			-2.809
37200.000			19.662			-2.809
37301.000			19.661			-2.809
37400.000			19.659			-2.808
37500.000			19.659			-2.808
37602.000			19.658			-2.808
37701.000			19.657			-2.808
37800.000			19.655			-2.808
37901.000			19.654			-2.808
38000.000			19.654			-2.808
38100.000			19.653			-2.808
38201.000			19.652			-2.807
38300.000			19.649			-2.807
38400.000			19.650			-2.807
38502.000			19.649			-2.807
38601.000			19.648			-2.807
38700.000			19.647			-2.807
38801.000			19.646			-2.807
38900.000			19.646			-2.807
39000.000			19.643			-2.806
39101.000			19.643			-2.806
39200.000			19.642			-2.806
39301.000			19.641			-2.806
39402.000			19.639			-2.806
39500.000			19.639			-2.806
39600.000			19.638			-2.805
39700.000			19.637			-2.805
39800.000			19.636			-2.805
39901.000			19.636			-2.805
40000.000			19.635			-2.805
40101.000			19.633			-2.805
40202.000			19.632			-2.805
40301.000			19.632			-2.805
40400.000			19.631			-2.804
40501.000			19.629			-2.804
40600.000			19.628			-2.804
40700.000			19.627			-2.804
40801.000			19.626			-2.804
40901.000			19.626			-2.804
41001.000			19.625			-2.804
41102.000			19.623			-2.803
41200.000			19.622			-2.803
41300.000			19.622			-2.803
41401.000			19.620			-2.803
41500.000			19.620			-2.803
41600.000			19.618			-2.803
41701.000			19.617			-2.802
41801.000			19.617			-2.802
41901.000			19.617			-2.802
42001.000			19.614			-2.802
42100.000			19.614			-2.802
42200.000			19.614			-2.802
42301.000			19.612			-2.802
42400.000			19.611			-2.802
42500.000			19.610			-2.801
42602.000			19.611			-2.802
42701.000			19.609			-2.801
42800.000			19.608			-2.801
42900.000			19.607			-2.801
43000.000			19.607			-2.801
43101.000			19.606			-2.801
43200.000			19.604			-2.801
43300.000			19.603			-2.800
43402.000			19.601			-2.800
43501.000			19.601			-2.800
43600.000			19.600			-2.800
43701.000			19.600			-2.800
43800.000			19.599			-2.800
43900.000			19.598			-2.800
44001.000			19.597			-2.800
44100.000			19.596			-2.799
44201.000			19.594			-2.799
44302.000			19.593			-2.799
44400.000			19.594			-2.799
44500.000			19.593			-2.799
44601.000			19.593			-2.799
44700.000			19.591			-2.799
44800.000			19.590			-2.799
44901.000			19.589			-2.798
45001.000			19.588			-2.798
45101.000			19.587			-2.798
45201.000			19.586			-2.798
45300.000			19.585			-2.798
45400.000			19.584			-2.798
45501.000			19.584			-2.798
45600.000			19.583			-2.798
45700.000			19.582			-2.797
45801.000			19.581			-2.797
45901.000			19.581			-2.797
46002.000			19.579			-2.797
46100.000			19.578			-2.797
46200.000			19.578			-2.797
46301.000			19.579			-2.797
46400.000			19.576			-2.797
46500.000			19.576			-2.797
46601.000			19.575			-2.796
46701.000			19.574			-2.796
46801.000			19.573			-2.796
46901.000			19.573			-2.796
47000.000			19.572			-2.796
47100.000			19.570			-2.796
47201.000			19.570			-2.796
47300.000			19.569			-2.796
47400.000			19.567			-2.795
47502.000			19.566			-2.795
47601.000			19.567			-2.795
47701.000			19.566			-2.795
47801.000			19.564			-2.795
47900.000			19.564			-2.795
48000.000			19.564			-2.795
48101.000			19.562			-2.795
48200.000			19.561			-2.794
48300.000			19.560			-2.794
48402.000			19.559			-2.794
48501.000			19.559			-2.794
48600.000			19.557			-2.794
48701.000			19.556			-2.794
48800.000			19.556			-2.794
48900.000			19.556			-2.794
49001.000			19.555			-2.794
49100.000			19.554			-2.793
49202.000			19.554			-2.793
49301.000			19.553			-2.793
49400.000			19.552			-2.793
49501.000			19.551			-2.793
49600.000			19.550			-2.793
49700.000			19.550			-2.793
49801.000			19.548			-2.793
49900.000			19.548			-2.793
50001.000			19.547			-2.792
50102.000			19.546			-2.792
50201.000			19.544			-2.792
50300.000			19.544			-2.792
50401.000			19.545			-2.792
50500.000			19.543			-2.792
50600.000			19.543			-2.792
50701.000			19.542			-2.792
50801.000			19.542			-2.792
50901.000			19.540			-2.791
51002.000			19.540			-2.791
51100.000			19.538			-2.791
51200.000			19.537			-2.791
51301.000			19.536			-2.791
51400.000			19.536			-2.791
51500.000			19.535			-2.791
51601.000			19.534			-2.791
51701.000			19.534			-2.791
51801.000			19.533			-2.790
51901.000			19.533			-2.790
52000.000			19.532			-2.790
52100.000			19.532			-2.790
52201.000			19.530			-2.790
52300.000			19.529			-2.790
52400.000			19.528			-2.790
52502.000			19.528			-2.790
52601.000			19.528			-2.790
52701.000			19.527			-2.790
52800.000			19.527			-2.790
52900.000			19.523			-2.789
53001.000			19.524			-2.789
53100.000			19.523			-2.789
53200.000			19.522			-2.789
53302.000			19.523			-2.789
53401.000			19.523			-2.789
53500.000			19.522			-2.789
53601.000			19.521			-2.789
53700.000			19.519			-2.788
53800.000			19.518			-2.788
53901.000			19.517			-2.788
54000.000			19.517			-2.788
54101.000			19.517			-2.788
54202.000			19.516			-2.788
54300.000			19.516			-2.788
54400.000			19.514			-2.788
54501.000			19.514			-2.788
54600.000			19.514			-2.788
54700.000			19.513			-2.788
54801.000			19.511			-2.787
54901.000			19.510			-2.787
55001.000			19.509			-2.787
55101.000			19.509			-2.787
55200.000			19.509			-2.787
55300.000			19.508			-2.787
55401.000			19.507			-2.787
55500.000			19.505			-2.786
55600.000			19.505			-2.786
55702.000			19.506			-2.787
55801.000			19.505			-2.786
55901.000			19.503			-2.786
56000.000			19.502			-2.786
56100.000			19.502			-2.786
56201.000			19.501			-2.786
56300.000			19.501			-2.786
56400.000			19.501			-2.786
56502.000			19.500			-2.786
56601.000			19.499			-2.786
56700.000			19.499			-2.786
56801.000			19.497			-2.785
56900.000			19.496			-2.785
57000.000			19.496			-2.785
57101.000			19.496			-2.785
57200.000			19.495			-2.785
57301.000			19.494			-2.785
57402.000			19.493			-2.785
57501.000			19.492			-2.785
57600.000			19.492			-2.785
57701.000			19.492			-2.785
57800.000			19.491			-2.784
57900.000			19.491			-2.784
58001.000			19.490			-2.784
58100.000			19.488			-2.784
58201.000			19.487			-2.784
58302.000			19.488			-2.784
58400.000			19.488			-2.784
58500.000			19.488			-2.784
58601.000			19.486			-2.784
58700.000			19.485			-2.784
58800.000			19.485			-2.784
58900.000			19.484			-2.783
59001.000			19.484			-2.783
59102.000			19.483			-2.783
59201.000			19.483			-2.783
59300.000			19.481			-2.783
59401.000			19.480			-2.783
59500.000			19.479			-2.783
59600.000			19.479			-2.783
59701.000			19.478			-2.783
59800.000			19.479			-2.783
59901.000			19.478			-2.783
60002.000			19.477			-2.782
60100.000			19.477			-2.782
60200.000			19.475			-2.782
60301.000			19.475			-2.782
60400.000			19.474			-2.782
60500.000			19.473			-2.782
60601.000			19.473			-2.782
60701.000			19.472			-2.782
60801.000			19.471			-2.782
60901.000			19.471			-2.782
61000.000			19.470			-2.781
61100.000			19.469			-2.781
61201.000			19.468			-2.781
61300.000			19.468			-2.781
61400.000			19.467			-2.781
61502.000			19.466			-2.781
61601.000			19.465			-2.781
61700.000			19.465			-2.781
61801.000			19.465			-2.781
61900.000			19.464			-2.781
62000.000			19.464			-2.781
62100.000			19.464			-2.781
62200.000			19.463			-2.780
62301.000			19.463			-2.780
62401.000			19.461			-2.780
62501.000			19.461			-2.780
62601.000			19.461			-2.780
62700.000			19.460			-2.780
62800.000			19.459			-2.780
62901.000			19.457			-2.780
63000.000			19.457			-2.780
63100.000			19.458			-2.780
63202.000			19.456			-2.779
63301.000			19.455			-2.779
63400.000			19.455			-2.779
63501.000			19.455			-2.779
63600.000			19.454			-2.779
63700.000			19.453			-2.779
63801.000			19.453			-2.779
63900.000			19.452			-2.779
64001.000			19.452			-2.779
64102.000			19.450			-2.779
64200.000			19.449			-2.778
64300.000			19.449			-2.778
64401.000			19.449			-2.778
64500.000			19.448			-2.778
64600.000			19.448			-2.778
64701.000			19.448			-2.778
64801.000			19.448			-2.778
64901.000			19.447			-2.778
65002.000			19.446			-2.778
65100.000			19.446			-2.778
65200.000			19.445			-2.778
65300.000			19.445			-2.778
65400.000			19.443			-2.778
65501.000			19.442			-2.777
65600.000			19.442			-2.777
65701.000			19.441			-2.777
65802.000			19.441			-2.777
65900.000			19.440			-2.777
66000.000			19.439			-2.777
66101.000			19.439			-2.777
66200.000			19.438			-2.777
66300.000			19.438			-2.777
66401.000			19.438			-2.777
66501.000			19.437			-2.777
66601.000			19.437			-2.777
66701.000			19.436			-2.777
66800.000			19.434			-2.776
66900.000			19.433			-2.776
67001.000			19.432			-2.776
67100.000			19.432			-2.776
67200.000			19.432			-2.776
67302.000			19.433			-2.776
67401.000			19.432			-2.776
67501.000			19.431			-2.776
67601.000			19.430			-2.776
67700.000			19.429			-2.776
67800.000			19.428			-2.775
67901.000			19.428			-2.775
68000.000			19.427			-2.775
68100.000			19.428			-2.775
68202.000			19.428			-2.775
68301.000			19.426			-2.775
68400.000			19.425			-2.775
68500.000			19.426			-2.775
68600.000			19.424			-2.775
68701.000			19.424			-2.775
68800.000			19.423			-2.775
68900.000			19.423			-2.775
69002.000			19.422			-2.775
69101.000			19.420			-2.774
69200.000			19.420			-2.774
69301.000			19.420			-2.774
69400.000			19.419			-2.774
69500.000			19.418			-2.774
69601.000			19.418			-2.774
69700.000			19.418			-2.774
69801.000			19.417			-2.774
69902.000			19.416			-2.774
70001.000			19.416			-2.774
70100.000			19.415			-2.774
70201.000			19.415			-2.774
70300.000			19.414			-2.773
70400.000			19.414			-2.773
70501.000			19.413			-2.773
70601.000			19.412			-2.773
70701.000			19.413			-2.773
70802.000			19.412			-2.773
70900.000			19.412			-2.773
71000.000			19.411			-2.773
71101.000			19.410			-2.773
71200.000			19.408			-2.773
