# Acquired on 19/12/2023 17:32:48 
# SPIDER: Creep_-1mm_07714532B-1
# CREEP MEASUREMENT

# time [ms]		force [N]		stiffness [N/mm]
1.000			1.386			-1.386
100.000			2.269			-2.269
200.000			2.659			-2.659
301.000			2.720			-2.720
400.000			2.704			-2.704
500.000			2.679			-2.679
602.000			2.671			-2.671
701.000			2.665			-2.665
800.000			2.659			-2.659
901.000			2.654			-2.654
1000.000			2.650			-2.650
1100.000			2.645			-2.645
1201.000			2.642			-2.642
1300.000			2.636			-2.636
1401.000			2.632			-2.632
1502.000			2.629			-2.629
1600.000			2.627			-2.627
1700.000			2.624			-2.624
1800.000			2.623			-2.623
1900.000			2.620			-2.620
2001.000			2.616			-2.616
2101.000			2.615			-2.615
2201.000			2.613			-2.613
2301.000			2.612			-2.612
2400.000			2.610			-2.610
2500.000			2.609			-2.609
2601.000			2.607			-2.607
2700.000			2.604			-2.604
2800.000			2.604			-2.604
2902.000			2.603			-2.603
3001.000			2.601			-2.601
3100.000			2.601			-2.601
3201.000			2.599			-2.599
3300.000			2.598			-2.598
3400.000			2.598			-2.598
3501.000			2.594			-2.594
3601.000			2.594			-2.594
3701.000			2.594			-2.594
3801.000			2.594			-2.594
3900.000			2.593			-2.593
4000.000			2.591			-2.591
4101.000			2.590			-2.590
4200.000			2.588			-2.588
4300.000			2.587			-2.587
4402.000			2.587			-2.587
4501.000			2.587			-2.587
4600.000			2.585			-2.585
4701.000			2.584			-2.584
4800.000			2.584			-2.584
4900.000			2.583			-2.583
5000.000			2.582			-2.582
5100.000			2.582			-2.582
5202.000			2.581			-2.581
5301.000			2.580			-2.580
5400.000			2.579			-2.579
5501.000			2.579			-2.579
5600.000			2.578			-2.578
5700.000			2.578			-2.578
5801.000			2.577			-2.577
5900.000			2.577			-2.577
6001.000			2.575			-2.575
6102.000			2.575			-2.575
6200.000			2.575			-2.575
6300.000			2.574			-2.574
6401.000			2.573			-2.573
6500.000			2.574			-2.574
6600.000			2.573			-2.573
6701.000			2.572			-2.572
6801.000			2.571			-2.571
6901.000			2.571			-2.571
7001.000			2.570			-2.570
7100.000			2.570			-2.570
7200.000			2.569			-2.569
7301.000			2.569			-2.569
7400.000			2.569			-2.569
7500.000			2.569			-2.569
7602.000			2.569			-2.569
7701.000			2.569			-2.569
7800.000			2.568			-2.568
7901.000			2.567			-2.567
8000.000			2.566			-2.566
8100.000			2.566			-2.566
8200.000			2.565			-2.565
8300.000			2.564			-2.564
8402.000			2.565			-2.565
8501.000			2.565			-2.565
8600.000			2.563			-2.563
8701.000			2.563			-2.563
8800.000			2.562			-2.562
8900.000			2.562			-2.562
9001.000			2.562			-2.562
9101.000			2.563			-2.563
9201.000			2.562			-2.562
9301.000			2.562			-2.562
9400.000			2.560			-2.560
9500.000			2.561			-2.561
9601.000			2.560			-2.560
9700.000			2.559			-2.559
9800.000			2.559			-2.559
9902.000			2.560			-2.560
10001.000			2.558			-2.558
10100.000			2.557			-2.557
10201.000			2.557			-2.557
10300.000			2.556			-2.556
10400.000			2.556			-2.556
10501.000			2.556			-2.556
10600.000			2.556			-2.556
10701.000			2.556			-2.556
10802.000			2.556			-2.556
10900.000			2.556			-2.556
11000.000			2.555			-2.555
11101.000			2.554			-2.554
11200.000			2.554			-2.554
11300.000			2.554			-2.554
11400.000			2.554			-2.554
11501.000			2.554			-2.554
11602.000			2.554			-2.554
11700.000			2.553			-2.553
11800.000			2.552			-2.552
11901.000			2.552			-2.552
12000.000			2.552			-2.552
12100.000			2.552			-2.552
12201.000			2.552			-2.552
12301.000			2.551			-2.551
12401.000			2.551			-2.551
12501.000			2.550			-2.550
12600.000			2.551			-2.551
12700.000			2.551			-2.551
12801.000			2.551			-2.551
12900.000			2.549			-2.549
13000.000			2.549			-2.549
13102.000			2.549			-2.549
13201.000			2.549			-2.549
13300.000			2.549			-2.549
13401.000			2.548			-2.548
13500.000			2.548			-2.548
13600.000			2.549			-2.549
13701.000			2.548			-2.548
13800.000			2.548			-2.548
13901.000			2.547			-2.547
14002.000			2.547			-2.547
14100.000			2.547			-2.547
14200.000			2.546			-2.546
14301.000			2.547			-2.547
14400.000			2.545			-2.545
14500.000			2.546			-2.546
14600.000			2.546			-2.546
14701.000			2.547			-2.547
14802.000			2.545			-2.545
14900.000			2.545			-2.545
15000.000			2.545			-2.545
15101.000			2.545			-2.545
15200.000			2.544			-2.544
15300.000			2.544			-2.544
15401.000			2.543			-2.543
15501.000			2.542			-2.542
15601.000			2.543			-2.543
15701.000			2.543			-2.543
15800.000			2.543			-2.543
15900.000			2.542			-2.542
16001.000			2.542			-2.542
16100.000			2.542			-2.542
16201.000			2.542			-2.542
16302.000			2.541			-2.541
16401.000			2.541			-2.541
16500.000			2.540			-2.540
16601.000			2.540			-2.540
16700.000			2.540			-2.540
16800.000			2.540			-2.540
16901.000			2.539			-2.539
17001.000			2.540			-2.540
17101.000			2.538			-2.538
17201.000			2.538			-2.538
17300.000			2.538			-2.538
17400.000			2.538			-2.538
17501.000			2.538			-2.538
17600.000			2.538			-2.538
17700.000			2.538			-2.538
17802.000			2.538			-2.538
17901.000			2.538			-2.538
18002.000			2.538			-2.538
18100.000			2.537			-2.537
18200.000			2.536			-2.536
18301.000			2.535			-2.535
18400.000			2.536			-2.536
18500.000			2.536			-2.536
18601.000			2.536			-2.536
18701.000			2.536			-2.536
18801.000			2.536			-2.536
18901.000			2.535			-2.535
19000.000			2.535			-2.535
19100.000			2.535			-2.535
19201.000			2.535			-2.535
19300.000			2.535			-2.535
19400.000			2.536			-2.536
19502.000			2.536			-2.536
19601.000			2.534			-2.534
19700.000			2.535			-2.535
19801.000			2.534			-2.534
19900.000			2.534			-2.534
20000.000			2.534			-2.534
20101.000			2.533			-2.533
20200.000			2.533			-2.533
20301.000			2.532			-2.532
20402.000			2.532			-2.532
20500.000			2.533			-2.533
20600.000			2.533			-2.533
20701.000			2.534			-2.534
20800.000			2.532			-2.532
20900.000			2.532			-2.532
21002.000			2.532			-2.532
21101.000			2.532			-2.532
21201.000			2.531			-2.531
21300.000			2.531			-2.531
21400.000			2.531			-2.531
21501.000			2.531			-2.531
21600.000			2.530			-2.530
21700.000			2.531			-2.531
21802.000			2.530			-2.530
21901.000			2.530			-2.530
22000.000			2.530			-2.530
22101.000			2.531			-2.531
22200.000			2.530			-2.530
22300.000			2.530			-2.530
22401.000			2.531			-2.531
22500.000			2.531			-2.531
22601.000			2.531			-2.531
22702.000			2.529			-2.529
22800.000			2.530			-2.530
22900.000			2.530			-2.530
23001.000			2.529			-2.529
23100.000			2.529			-2.529
23200.000			2.527			-2.527
23301.000			2.527			-2.527
23401.000			2.528			-2.528
23501.000			2.528			-2.528
23601.000			2.527			-2.527
23700.000			2.526			-2.526
23800.000			2.526			-2.526
23901.000			2.527			-2.527
24000.000			2.528			-2.528
24100.000			2.529			-2.529
24202.000			2.528			-2.528
24301.000			2.527			-2.527
24401.000			2.527			-2.527
24500.000			2.527			-2.527
24600.000			2.526			-2.526
24701.000			2.527			-2.527
24800.000			2.526			-2.526
24900.000			2.526			-2.526
25002.000			2.526			-2.526
25101.000			2.527			-2.527
25200.000			2.526			-2.526
25301.000			2.525			-2.525
25400.000			2.525			-2.525
25500.000			2.526			-2.526
25601.000			2.527			-2.527
25701.000			2.526			-2.526
25801.000			2.527			-2.527
25902.000			2.526			-2.526
26000.000			2.526			-2.526
26100.000			2.526			-2.526
26201.000			2.526			-2.526
26300.000			2.525			-2.525
26400.000			2.524			-2.524
26501.000			2.524			-2.524
26601.000			2.524			-2.524
26701.000			2.524			-2.524
26801.000			2.523			-2.523
26900.000			2.524			-2.524
27000.000			2.525			-2.525
27101.000			2.525			-2.525
27200.000			2.524			-2.524
27300.000			2.524			-2.524
27402.000			2.523			-2.523
27501.000			2.523			-2.523
27601.000			2.523			-2.523
27700.000			2.523			-2.523
27800.000			2.523			-2.523
27901.000			2.523			-2.523
28000.000			2.522			-2.522
28101.000			2.523			-2.523
28202.000			2.523			-2.523
28300.000			2.523			-2.523
28400.000			2.522			-2.522
28501.000			2.521			-2.521
28600.000			2.522			-2.522
28700.000			2.522			-2.522
28801.000			2.522			-2.522
28901.000			2.522			-2.522
29001.000			2.522			-2.522
29101.000			2.521			-2.521
29200.000			2.522			-2.522
29300.000			2.521			-2.521
29401.000			2.521			-2.521
29500.000			2.521			-2.521
29600.000			2.520			-2.520
29702.000			2.521			-2.521
29801.000			2.522			-2.522
29900.000			2.521			-2.521
30001.000			2.521			-2.521
30100.000			2.520			-2.520
30200.000			2.520			-2.520
30301.000			2.521			-2.521
30400.000			2.521			-2.521
30502.000			2.521			-2.521
30601.000			2.519			-2.519
30700.000			2.520			-2.520
30801.000			2.521			-2.521
30900.000			2.521			-2.521
31000.000			2.521			-2.521
31101.000			2.520			-2.520
31200.000			2.520			-2.520
31301.000			2.519			-2.519
31402.000			2.520			-2.520
31500.000			2.521			-2.521
31600.000			2.520			-2.520
31701.000			2.520			-2.520
31800.000			2.520			-2.520
31900.000			2.520			-2.520
32001.000			2.520			-2.520
32101.000			2.519			-2.519
32201.000			2.520			-2.520
32301.000			2.520			-2.520
32400.000			2.520			-2.520
32500.000			2.519			-2.519
32601.000			2.520			-2.520
32700.000			2.520			-2.520
32800.000			2.519			-2.519
32902.000			2.519			-2.519
33001.000			2.520			-2.520
33100.000			2.519			-2.519
33201.000			2.519			-2.519
33300.000			2.519			-2.519
33400.000			2.517			-2.517
33501.000			2.518			-2.518
33601.000			2.518			-2.518
33702.000			2.520			-2.520
33801.000			2.518			-2.518
33900.000			2.519			-2.519
34001.000			2.519			-2.519
34100.000			2.518			-2.518
34200.000			2.518			-2.518
34301.000			2.519			-2.519
34401.000			2.518			-2.518
34501.000			2.518			-2.518
34601.000			2.518			-2.518
34700.000			2.519			-2.519
34800.000			2.519			-2.519
34901.000			2.518			-2.518
35000.000			2.518			-2.518
35100.000			2.519			-2.519
35201.000			2.518			-2.518
35301.000			2.518			-2.518
35401.000			2.518			-2.518
35501.000			2.518			-2.518
35600.000			2.518			-2.518
35700.000			2.518			-2.518
35801.000			2.518			-2.518
35900.000			2.518			-2.518
36000.000			2.519			-2.519
36102.000			2.519			-2.519
36201.000			2.518			-2.518
36300.000			2.519			-2.519
36401.000			2.519			-2.519
36500.000			2.518			-2.518
36600.000			2.518			-2.518
36701.000			2.518			-2.518
36801.000			2.519			-2.519
36902.000			2.518			-2.518
37001.000			2.517			-2.517
37100.000			2.518			-2.518
37201.000			2.518			-2.518
37300.000			2.518			-2.518
37400.000			2.518			-2.518
37501.000			2.518			-2.518
37601.000			2.519			-2.519
37701.000			2.519			-2.519
37802.000			2.518			-2.518
37900.000			2.518			-2.518
38000.000			2.518			-2.518
38101.000			2.518			-2.518
38200.000			2.517			-2.517
38300.000			2.517			-2.517
38401.000			2.518			-2.518
38501.000			2.518			-2.518
38601.000			2.517			-2.517
38701.000			2.517			-2.517
38800.000			2.517			-2.517
38900.000			2.516			-2.516
39001.000			2.517			-2.517
39100.000			2.518			-2.518
39200.000			2.517			-2.517
39302.000			2.516			-2.516
39401.000			2.516			-2.516
39500.000			2.517			-2.517
39601.000			2.517			-2.517
39700.000			2.516			-2.516
39800.000			2.517			-2.517
39901.000			2.517			-2.517
40000.000			2.517			-2.517
40102.000			2.516			-2.516
40201.000			2.518			-2.518
40300.000			2.517			-2.517
40401.000			2.516			-2.516
40500.000			2.515			-2.515
40600.000			2.515			-2.515
40701.000			2.514			-2.514
40800.000			2.515			-2.515
40901.000			2.517			-2.517
41002.000			2.516			-2.516
41100.000			2.516			-2.516
41200.000			2.516			-2.516
41301.000			2.515			-2.515
41400.000			2.516			-2.516
41500.000			2.516			-2.516
41602.000			2.516			-2.516
41701.000			2.516			-2.516
41801.000			2.515			-2.515
41901.000			2.515			-2.515
42000.000			2.516			-2.516
42100.000			2.517			-2.517
42201.000			2.516			-2.516
42300.000			2.515			-2.515
42401.000			2.515			-2.515
42502.000			2.515			-2.515
42600.000			2.515			-2.515
42700.000			2.515			-2.515
42801.000			2.514			-2.514
42900.000			2.515			-2.515
43000.000			2.515			-2.515
43101.000			2.514			-2.514
43201.000			2.514			-2.514
43302.000			2.514			-2.514
43400.000			2.514			-2.514
43500.000			2.514			-2.514
43601.000			2.514			-2.514
43700.000			2.515			-2.515
43800.000			2.514			-2.514
43901.000			2.515			-2.515
44001.000			2.514			-2.514
44101.000			2.515			-2.515
44201.000			2.515			-2.515
44300.000			2.514			-2.514
44400.000			2.515			-2.515
44501.000			2.515			-2.515
44600.000			2.515			-2.515
44700.000			2.515			-2.515
44802.000			2.514			-2.514
44901.000			2.513			-2.513
45000.000			2.513			-2.513
45101.000			2.514			-2.514
45200.000			2.514			-2.514
45300.000			2.514			-2.514
45401.000			2.514			-2.514
45501.000			2.513			-2.513
45601.000			2.515			-2.515
45702.000			2.514			-2.514
45800.000			2.513			-2.513
45900.000			2.513			-2.513
46001.000			2.514			-2.514
46100.000			2.514			-2.514
46200.000			2.513			-2.513
46302.000			2.514			-2.514
46401.000			2.513			-2.513
46502.000			2.513			-2.513
46600.000			2.513			-2.513
46700.000			2.514			-2.514
46801.000			2.512			-2.512
46900.000			2.513			-2.513
47000.000			2.514			-2.514
47102.000			2.513			-2.513
47201.000			2.513			-2.513
47301.000			2.514			-2.514
47401.000			2.513			-2.513
47500.000			2.512			-2.512
47600.000			2.513			-2.513
47701.000			2.513			-2.513
47800.000			2.512			-2.512
47901.000			2.513			-2.513
48002.000			2.513			-2.513
48101.000			2.513			-2.513
48200.000			2.513			-2.513
48301.000			2.511			-2.511
48400.000			2.511			-2.511
48500.000			2.512			-2.512
48601.000			2.511			-2.511
48701.000			2.512			-2.512
48801.000			2.512			-2.512
48901.000			2.511			-2.511
49000.000			2.512			-2.512
49100.000			2.512			-2.512
49201.000			2.513			-2.513
49300.000			2.512			-2.512
49400.000			2.511			-2.511
49502.000			2.511			-2.511
49601.000			2.511			-2.511
49700.000			2.512			-2.512
49800.000			2.511			-2.511
49900.000			2.510			-2.510
50001.000			2.510			-2.510
50100.000			2.510			-2.510
50200.000			2.511			-2.511
50302.000			2.511			-2.511
50401.000			2.511			-2.511
50500.000			2.511			-2.511
50601.000			2.510			-2.510
50700.000			2.510			-2.510
50800.000			2.511			-2.511
50901.000			2.510			-2.510
51000.000			2.510			-2.510
51101.000			2.510			-2.510
51202.000			2.510			-2.510
51300.000			2.510			-2.510
51400.000			2.510			-2.510
51501.000			2.511			-2.511
51600.000			2.510			-2.510
51700.000			2.510			-2.510
51802.000			2.509			-2.509
51901.000			2.509			-2.509
52001.000			2.510			-2.510
52101.000			2.510			-2.510
52200.000			2.510			-2.510
52300.000			2.510			-2.510
52401.000			2.509			-2.509
52500.000			2.509			-2.509
52601.000			2.510			-2.510
52702.000			2.510			-2.510
52800.000			2.510			-2.510
52900.000			2.510			-2.510
53000.000			2.510			-2.510
53100.000			2.509			-2.509
53201.000			2.509			-2.509
53300.000			2.509			-2.509
53401.000			2.510			-2.510
53502.000			2.510			-2.510
53600.000			2.509			-2.509
53700.000			2.509			-2.509
53801.000			2.510			-2.510
53900.000			2.509			-2.509
54000.000			2.508			-2.508
54101.000			2.508			-2.508
54201.000			2.510			-2.510
54301.000			2.509			-2.509
54401.000			2.508			-2.508
54500.000			2.509			-2.509
54600.000			2.509			-2.509
54701.000			2.509			-2.509
54800.000			2.508			-2.508
54900.000			2.507			-2.507
55002.000			2.507			-2.507
55101.000			2.508			-2.508
55200.000			2.508			-2.508
55301.000			2.509			-2.509
55400.000			2.510			-2.510
55500.000			2.509			-2.509
55601.000			2.508			-2.508
55700.000			2.507			-2.507
55801.000			2.506			-2.506
55902.000			2.506			-2.506
56000.000			2.506			-2.506
56100.000			2.507			-2.507
56200.000			2.507			-2.507
56300.000			2.507			-2.507
56401.000			2.507			-2.507
56500.000			2.508			-2.508
56601.000			2.507			-2.507
56702.000			2.507			-2.507
56800.000			2.508			-2.508
56900.000			2.508			-2.508
57001.000			2.506			-2.506
57100.000			2.506			-2.506
57200.000			2.507			-2.507
57301.000			2.507			-2.507
57401.000			2.507			-2.507
57501.000			2.507			-2.507
57601.000			2.506			-2.506
57700.000			2.505			-2.505
57800.000			2.506			-2.506
57901.000			2.505			-2.505
58000.000			2.506			-2.506
58100.000			2.507			-2.507
58202.000			2.506			-2.506
58301.000			2.505			-2.505
58400.000			2.506			-2.506
58501.000			2.506			-2.506
58600.000			2.505			-2.505
58700.000			2.505			-2.505
58801.000			2.505			-2.505
58900.000			2.505			-2.505
59001.000			2.505			-2.505
59102.000			2.505			-2.505
59200.000			2.505			-2.505
59300.000			2.505			-2.505
59400.000			2.503			-2.503
59500.000			2.504			-2.504
59601.000			2.504			-2.504
59700.000			2.504			-2.504
59801.000			2.504			-2.504
59902.000			2.503			-2.503
60000.000			2.503			-2.503
60100.000			2.503			-2.503
60201.000			2.504			-2.504
60300.000			2.503			-2.503
60400.000			2.503			-2.503
60502.000			2.503			-2.503
60601.000			2.503			-2.503
60700.000			2.503			-2.503
60801.000			2.503			-2.503
60900.000			2.503			-2.503
61000.000			2.503			-2.503
61101.000			2.503			-2.503
61200.000			2.502			-2.502
61301.000			2.502			-2.502
61402.000			2.503			-2.503
61500.000			2.502			-2.502
61600.000			2.502			-2.502
61701.000			2.502			-2.502
61800.000			2.502			-2.502
61900.000			2.501			-2.501
62001.000			2.501			-2.501
62101.000			2.502			-2.502
62201.000			2.501			-2.501
62301.000			2.503			-2.503
62400.000			2.502			-2.502
62500.000			2.502			-2.502
62600.000			2.502			-2.502
62700.000			2.501			-2.501
62801.000			2.502			-2.502
62901.000			2.502			-2.502
63001.000			2.501			-2.501
63101.000			2.501			-2.501
63200.000			2.500			-2.500
63300.000			2.500			-2.500
63401.000			2.500			-2.500
63500.000			2.500			-2.500
63601.000			2.500			-2.500
63702.000			2.501			-2.501
63801.000			2.501			-2.501
63900.000			2.500			-2.500
64001.000			2.500			-2.500
64100.000			2.499			-2.499
64200.000			2.499			-2.499
64301.000			2.499			-2.499
64400.000			2.500			-2.500
64501.000			2.500			-2.500
64602.000			2.500			-2.500
64700.000			2.499			-2.499
64800.000			2.500			-2.500
64901.000			2.500			-2.500
65000.000			2.500			-2.500
65100.000			2.499			-2.499
65201.000			2.499			-2.499
65301.000			2.500			-2.500
65401.000			2.500			-2.500
65501.000			2.499			-2.499
65600.000			2.500			-2.500
65700.000			2.500			-2.500
65800.000			2.499			-2.499
65900.000			2.499			-2.499
66001.000			2.500			-2.500
66100.000			2.500			-2.500
66201.000			2.500			-2.500
66302.000			2.498			-2.498
66400.000			2.499			-2.499
66500.000			2.499			-2.499
66601.000			2.499			-2.499
66700.000			2.499			-2.499
66800.000			2.499			-2.499
66901.000			2.499			-2.499
67001.000			2.499			-2.499
67101.000			2.499			-2.499
67201.000			2.499			-2.499
67300.000			2.499			-2.499
67400.000			2.499			-2.499
67501.000			2.499			-2.499
67600.000			2.499			-2.499
67700.000			2.499			-2.499
67801.000			2.498			-2.498
67901.000			2.498			-2.498
68001.000			2.498			-2.498
68101.000			2.498			-2.498
68200.000			2.497			-2.497
68300.000			2.497			-2.497
68401.000			2.498			-2.498
68500.000			2.497			-2.497
68600.000			2.497			-2.497
68702.000			2.497			-2.497
68801.000			2.498			-2.498
68902.000			2.498			-2.498
69000.000			2.498			-2.498
69100.000			2.498			-2.498
69201.000			2.497			-2.497
69300.000			2.497			-2.497
69400.000			2.498			-2.498
69501.000			2.499			-2.499
69601.000			2.498			-2.498
69701.000			2.497			-2.497
69801.000			2.496			-2.496
69900.000			2.497			-2.497
70000.000			2.498			-2.498
70101.000			2.498			-2.498
70200.000			2.498			-2.498
70300.000			2.498			-2.498
70402.000			2.498			-2.498
70501.000			2.498			-2.498
70601.000			2.499			-2.499
70701.000			2.499			-2.499
70800.000			2.499			-2.499
70900.000			2.498			-2.498
71001.000			2.498			-2.498
71100.000			2.498			-2.498
71200.000			2.498			-2.498
71302.000			2.496			-2.496
71401.000			2.497			-2.497
71500.000			2.498			-2.498
71601.000			2.498			-2.498
71700.000			2.497			-2.497
71800.000			2.498			-2.498
71901.000			2.498			-2.498
72000.000			2.498			-2.498
72102.000			2.498			-2.498
72201.000			2.498			-2.498
72301.000			2.497			-2.497
72401.000			2.497			-2.497
72500.000			2.497			-2.497
72600.000			2.497			-2.497
72701.000			2.498			-2.498
72800.000			2.498			-2.498
72900.000			2.498			-2.498
73002.000			2.498			-2.498
73101.000			2.497			-2.497
73200.000			2.498			-2.498
73301.000			2.498			-2.498
73400.000			2.497			-2.497
73500.000			2.497			-2.497
73601.000			2.497			-2.497
73700.000			2.496			-2.496
73801.000			2.497			-2.497
73902.000			2.498			-2.498
