# Acquired on 30/01/2024 14:56:21 
# SPIDER: Creep_-11mm_HM077x145x38AB-1
# CREEP MEASUREMENT

# time [ms]		force [N]		stiffness [N/mm]
0.000			33.419			-3.038
104.000			33.911			-3.083
205.000			34.011			-3.092
303.000			33.756			-3.069
404.000			33.670			-3.061
505.000			33.600			-3.055
604.000			33.537			-3.049
704.000			33.482			-3.044
804.000			33.434			-3.039
904.000			33.389			-3.035
1004.000			33.309			-3.028
1105.000			33.275			-3.025
1204.000			33.241			-3.022
1304.000			33.209			-3.019
1405.000			33.180			-3.016
1503.000			33.153			-3.014
1604.000			33.126			-3.011
1705.000			33.077			-3.007
1804.000			33.053			-3.005
1904.000			33.030			-3.003
2003.000			33.009			-3.001
2104.000			32.988			-2.999
2205.000			32.968			-2.997
2304.000			32.949			-2.995
2404.000			32.930			-2.994
2505.000			32.896			-2.991
2604.000			32.878			-2.989
2703.000			32.861			-2.987
2805.000			32.845			-2.986
2904.000			32.829			-2.984
3004.000			32.812			-2.983
3105.000			32.798			-2.982
3204.000			32.770			-2.979
3304.000			32.757			-2.978
3404.000			32.743			-2.977
3504.000			32.731			-2.976
3604.000			32.718			-2.974
3705.000			32.706			-2.973
3804.000			32.692			-2.972
3903.000			32.668			-2.970
4005.000			32.656			-2.969
4104.000			32.645			-2.968
4204.000			32.633			-2.967
4305.000			32.623			-2.966
4404.000			32.613			-2.965
4504.000			32.603			-2.964
4604.000			32.580			-2.962
4704.000			32.569			-2.961
4804.000			32.561			-2.960
4905.000			32.551			-2.959
5004.000			32.540			-2.958
5103.000			32.531			-2.957
5205.000			32.523			-2.957
5304.000			32.512			-2.956
5405.000			32.494			-2.954
5504.000			32.485			-2.953
5604.000			32.477			-2.952
5705.000			32.469			-2.952
5803.000			32.460			-2.951
5904.000			32.452			-2.950
6005.000			32.444			-2.949
6104.000			32.428			-2.948
6204.000			32.420			-2.947
6304.000			32.413			-2.947
6404.000			32.406			-2.946
6504.000			32.398			-2.945
6605.000			32.390			-2.945
6704.000			32.382			-2.944
6804.000			32.367			-2.942
6905.000			32.360			-2.942
7003.000			32.354			-2.941
7104.000			32.347			-2.941
7205.000			32.339			-2.940
7304.000			32.332			-2.939
7404.000			32.326			-2.939
7505.000			32.312			-2.937
7604.000			32.306			-2.937
7703.000			32.301			-2.936
7805.000			32.295			-2.936
7904.000			32.287			-2.935
8004.000			32.280			-2.935
8105.000			32.274			-2.934
8203.000			32.269			-2.934
8304.000			32.257			-2.932
8405.000			32.251			-2.932
8504.000			32.245			-2.931
8605.000			32.239			-2.931
8704.000			32.233			-2.930
8804.000			32.227			-2.930
8904.000			32.221			-2.929
9004.000			32.210			-2.928
9104.000			32.203			-2.928
9205.000			32.198			-2.927
9304.000			32.193			-2.927
9403.000			32.188			-2.926
9505.000			32.183			-2.926
9604.000			32.179			-2.925
9704.000			32.165			-2.924
9805.000			32.161			-2.924
9904.000			32.157			-2.923
10004.000			32.152			-2.923
10104.000			32.146			-2.922
10204.000			32.140			-2.922
10304.000			32.135			-2.921
10405.000			32.126			-2.921
10504.000			32.121			-2.920
10603.000			32.117			-2.920
10705.000			32.112			-2.919
10804.000			32.107			-2.919
10904.000			32.102			-2.918
11005.000			32.097			-2.918
11104.000			32.093			-2.918
11204.000			32.083			-2.917
11304.000			32.078			-2.916
11404.000			32.074			-2.916
11504.000			32.069			-2.915
11604.000			32.064			-2.915
11704.000			32.060			-2.915
11805.000			32.055			-2.914
11904.000			32.047			-2.913
12003.000			32.043			-2.913
12105.000			32.038			-2.913
12204.000			32.033			-2.912
12304.000			32.029			-2.912
12405.000			32.025			-2.911
12503.000			32.021			-2.911
12604.000			32.012			-2.910
12705.000			32.008			-2.910
12804.000			32.004			-2.909
12904.000			32.000			-2.909
13005.000			31.995			-2.909
13104.000			31.991			-2.908
13203.000			31.988			-2.908
13305.000			31.980			-2.907
13404.000			31.977			-2.907
13504.000			31.972			-2.907
13605.000			31.968			-2.906
13704.000			31.964			-2.906
13804.000			31.961			-2.906
13904.000			31.958			-2.905
14004.000			31.951			-2.905
14104.000			31.947			-2.904
14205.000			31.942			-2.904
14304.000			31.938			-2.903
14404.000			31.935			-2.903
14505.000			31.930			-2.903
14603.000			31.928			-2.903
14704.000			31.925			-2.902
14805.000			31.918			-2.902
14904.000			31.913			-2.901
15005.000			31.910			-2.901
15104.000			31.907			-2.901
15204.000			31.903			-2.900
15304.000			31.900			-2.900
15404.000			31.895			-2.900
15504.000			31.888			-2.899
15605.000			31.885			-2.899
15704.000			31.882			-2.898
15804.000			31.880			-2.898
15905.000			31.876			-2.898
16003.000			31.872			-2.897
16104.000			31.869			-2.897
16205.000			31.864			-2.897
16304.000			31.860			-2.896
16404.000			31.856			-2.896
16505.000			31.852			-2.896
16604.000			31.849			-2.895
16703.000			31.845			-2.895
16805.000			31.842			-2.895
16904.000			31.835			-2.894
17004.000			31.831			-2.894
17105.000			31.830			-2.894
17203.000			31.827			-2.893
17304.000			31.823			-2.893
17405.000			31.819			-2.893
17504.000			31.816			-2.892
17604.000			31.814			-2.892
17705.000			31.808			-2.892
17804.000			31.804			-2.891
17903.000			31.800			-2.891
18005.000			31.798			-2.891
18104.000			31.796			-2.891
18205.000			31.793			-2.890
18304.000			31.789			-2.890
18404.000			31.784			-2.889
18505.000			31.780			-2.889
18603.000			31.778			-2.889
18704.000			31.775			-2.889
18805.000			31.773			-2.888
18904.000			31.769			-2.888
19004.000			31.766			-2.888
19105.000			31.761			-2.887
19204.000			31.758			-2.887
19303.000			31.756			-2.887
19405.000			31.752			-2.887
19504.000			31.749			-2.886
19604.000			31.747			-2.886
19705.000			31.744			-2.886
19804.000			31.738			-2.885
19904.000			31.734			-2.885
20004.000			31.732			-2.885
20104.000			31.730			-2.885
20204.000			31.728			-2.884
20305.000			31.725			-2.884
20404.000			31.722			-2.884
20504.000			31.718			-2.883
20605.000			31.713			-2.883
20703.000			31.711			-2.883
20804.000			31.708			-2.883
20905.000			31.706			-2.882
21004.000			31.703			-2.882
21104.000			31.701			-2.882
21204.000			31.698			-2.882
21304.000			31.693			-2.881
21403.000			31.690			-2.881
21504.000			31.688			-2.881
21604.000			31.686			-2.881
21705.000			31.684			-2.880
21804.000			31.681			-2.880
21903.000			31.678			-2.880
22005.000			31.674			-2.879
22104.000			31.671			-2.879
22204.000			31.668			-2.879
22305.000			31.665			-2.879
22404.000			31.663			-2.878
22504.000			31.660			-2.878
22604.000			31.659			-2.878
22704.000			31.654			-2.878
22804.000			31.651			-2.877
22905.000			31.647			-2.877
23004.000			31.645			-2.877
23104.000			31.644			-2.877
23205.000			31.642			-2.877
23303.000			31.639			-2.876
23404.000			31.634			-2.876
23505.000			31.632			-2.876
23604.000			31.630			-2.875
23704.000			31.627			-2.875
23805.000			31.625			-2.875
23904.000			31.623			-2.875
24003.000			31.621			-2.875
24105.000			31.619			-2.874
24204.000			31.613			-2.874
24304.000			31.611			-2.874
24405.000			31.609			-2.874
24504.000			31.606			-2.873
24605.000			31.605			-2.873
24703.000			31.603			-2.873
24804.000			31.600			-2.873
24905.000			31.596			-2.872
25004.000			31.594			-2.872
25104.000			31.591			-2.872
25205.000			31.589			-2.872
25304.000			31.587			-2.872
25403.000			31.584			-2.871
25505.000			31.583			-2.871
25604.000			31.578			-2.871
25704.000			31.577			-2.871
25805.000			31.574			-2.870
25903.000			31.571			-2.870
26004.000			31.570			-2.870
26105.000			31.567			-2.870
26204.000			31.565			-2.870
26304.000			31.562			-2.869
26405.000			31.560			-2.869
26504.000			31.558			-2.869
26603.000			31.555			-2.869
26705.000			31.554			-2.869
26804.000			31.552			-2.868
26904.000			31.550			-2.868
27005.000			31.547			-2.868
27104.000			31.542			-2.867
27204.000			31.542			-2.867
27304.000			31.540			-2.867
27404.000			31.537			-2.867
27504.000			31.535			-2.867
27604.000			31.534			-2.867
27704.000			31.532			-2.867
27805.000			31.526			-2.866
27904.000			31.525			-2.866
28003.000			31.524			-2.866
28105.000			31.522			-2.866
28204.000			31.519			-2.865
28304.000			31.517			-2.865
28405.000			31.516			-2.865
28504.000			31.512			-2.865
28604.000			31.510			-2.865
28704.000			31.508			-2.864
28804.000			31.506			-2.864
28904.000			31.505			-2.864
29005.000			31.503			-2.864
29104.000			31.499			-2.864
29203.000			31.498			-2.863
29305.000			31.495			-2.863
29404.000			31.493			-2.863
29504.000			31.491			-2.863
29605.000			31.489			-2.863
29704.000			31.486			-2.862
29804.000			31.485			-2.862
29904.000			31.481			-2.862
30004.000			31.479			-2.862
30103.000			31.477			-2.862
30205.000			31.476			-2.861
30304.000			31.474			-2.861
30404.000			31.472			-2.861
30505.000			31.470			-2.861
30603.000			31.468			-2.861
30704.000			31.465			-2.860
30805.000			31.463			-2.860
30904.000			31.460			-2.860
31005.000			31.458			-2.860
31104.000			31.457			-2.860
31204.000			31.455			-2.860
31304.000			31.453			-2.859
31404.000			31.449			-2.859
31504.000			31.448			-2.859
31605.000			31.448			-2.859
31704.000			31.446			-2.859
31804.000			31.444			-2.859
31905.000			31.443			-2.858
32003.000			31.441			-2.858
32104.000			31.437			-2.858
32205.000			31.434			-2.858
32304.000			31.432			-2.857
32404.000			31.430			-2.857
32504.000			31.429			-2.857
32604.000			31.428			-2.857
32704.000			31.426			-2.857
32805.000			31.423			-2.857
32904.000			31.421			-2.856
33004.000			31.419			-2.856
33105.000			31.417			-2.856
33203.000			31.415			-2.856
33304.000			31.414			-2.856
33405.000			31.412			-2.856
33504.000			31.410			-2.855
33604.000			31.407			-2.855
33705.000			31.405			-2.855
33804.000			31.403			-2.855
33903.000			31.402			-2.855
34005.000			31.401			-2.855
34104.000			31.400			-2.855
34205.000			31.397			-2.854
34304.000			31.393			-2.854
34403.000			31.392			-2.854
34505.000			31.390			-2.854
34604.000			31.388			-2.853
34704.000			31.388			-2.853
34805.000			31.385			-2.853
34904.000			31.384			-2.853
35004.000			31.380			-2.853
35104.000			31.379			-2.853
35204.000			31.377			-2.852
35304.000			31.376			-2.852
35405.000			31.374			-2.852
35504.000			31.372			-2.852
35604.000			31.372			-2.852
35705.000			31.368			-2.852
35803.000			31.366			-2.851
35904.000			31.364			-2.851
36005.000			31.363			-2.851
36104.000			31.361			-2.851
36204.000			31.359			-2.851
36305.000			31.357			-2.851
36404.000			31.355			-2.850
36503.000			31.353			-2.850
36605.000			31.352			-2.850
36704.000			31.350			-2.850
36804.000			31.347			-2.850
36905.000			31.346			-2.850
37004.000			31.344			-2.849
37104.000			31.344			-2.849
37203.000			31.341			-2.849
37304.000			31.339			-2.849
37405.000			31.338			-2.849
37504.000			31.337			-2.849
37604.000			31.334			-2.849
37704.000			31.333			-2.848
37804.000			31.331			-2.848
37903.000			31.329			-2.848
38005.000			31.328			-2.848
38104.000			31.326			-2.848
38204.000			31.325			-2.848
38305.000			31.323			-2.848
38403.000			31.321			-2.847
38504.000			31.319			-2.847
38605.000			31.317			-2.847
38704.000			31.316			-2.847
38804.000			31.314			-2.847
38905.000			31.314			-2.847
39004.000			31.311			-2.846
39103.000			31.310			-2.846
39205.000			31.308			-2.846
39304.000			31.305			-2.846
39404.000			31.304			-2.846
39505.000			31.303			-2.846
39604.000			31.301			-2.846
39704.000			31.299			-2.845
39804.000			31.297			-2.845
39904.000			31.297			-2.845
40004.000			31.294			-2.845
40105.000			31.291			-2.845
40204.000			31.290			-2.845
40303.000			31.289			-2.844
40405.000			31.287			-2.844
40504.000			31.287			-2.844
40605.000			31.286			-2.844
40704.000			31.283			-2.844
40804.000			31.280			-2.844
40905.000			31.280			-2.844
41003.000			31.278			-2.843
41104.000			31.277			-2.843
41205.000			31.275			-2.843
41304.000			31.273			-2.843
41404.000			31.271			-2.843
41505.000			31.268			-2.843
41604.000			31.268			-2.843
41703.000			31.266			-2.842
41805.000			31.265			-2.842
41904.000			31.264			-2.842
42004.000			31.262			-2.842
42105.000			31.260			-2.842
42204.000			31.258			-2.842
42304.000			31.258			-2.842
42404.000			31.257			-2.842
42504.000			31.254			-2.841
42604.000			31.253			-2.841
42705.000			31.252			-2.841
42804.000			31.250			-2.841
42903.000			31.248			-2.841
43005.000			31.247			-2.841
43104.000			31.246			-2.841
43204.000			31.245			-2.840
43305.000			31.242			-2.840
43404.000			31.241			-2.840
43504.000			31.240			-2.840
43604.000			31.236			-2.840
43704.000			31.235			-2.840
43805.000			31.234			-2.839
43904.000			31.233			-2.839
44004.000			31.232			-2.839
44105.000			31.230			-2.839
44204.000			31.228			-2.839
44303.000			31.228			-2.839
44405.000			31.225			-2.839
44504.000			31.224			-2.839
44604.000			31.222			-2.838
44705.000			31.222			-2.838
44804.000			31.220			-2.838
44904.000			31.219			-2.838
45004.000			31.218			-2.838
45104.000			31.215			-2.838
45204.000			31.213			-2.838
45305.000			31.212			-2.837
45404.000			31.211			-2.837
45503.000			31.211			-2.837
45605.000			31.209			-2.837
45704.000			31.207			-2.837
45804.000			31.205			-2.837
45905.000			31.203			-2.837
46004.000			31.202			-2.837
46104.000			31.201			-2.836
46204.000			31.201			-2.836
46304.000			31.199			-2.836
46404.000			31.198			-2.836
46505.000			31.195			-2.836
46604.000			31.194			-2.836
46704.000			31.193			-2.836
46805.000			31.191			-2.836
46903.000			31.190			-2.835
47005.000			31.189			-2.835
47104.000			31.187			-2.835
47204.000			31.184			-2.835
47305.000			31.184			-2.835
47404.000			31.182			-2.835
47504.000			31.181			-2.835
47604.000			31.180			-2.835
47704.000			31.178			-2.834
47804.000			31.177			-2.834
47905.000			31.177			-2.834
48004.000			31.174			-2.834
48104.000			31.173			-2.834
48205.000			31.171			-2.834
48303.000			31.169			-2.834
48404.000			31.168			-2.833
48505.000			31.169			-2.834
48604.000			31.166			-2.833
48704.000			31.165			-2.833
48805.000			31.163			-2.833
48904.000			31.161			-2.833
49003.000			31.159			-2.833
49105.000			31.158			-2.833
49204.000			31.156			-2.832
49304.000			31.155			-2.832
49405.000			31.154			-2.832
49503.000			31.152			-2.832
49604.000			31.151			-2.832
49705.000			31.150			-2.832
49804.000			31.149			-2.832
49904.000			31.147			-2.832
50004.000			31.146			-2.831
50104.000			31.145			-2.831
50203.000			31.144			-2.831
50304.000			31.143			-2.831
50404.000			31.141			-2.831
50505.000			31.140			-2.831
50604.000			31.138			-2.831
50704.000			31.137			-2.831
50805.000			31.135			-2.830
50903.000			31.134			-2.830
51004.000			31.132			-2.830
51105.000			31.132			-2.830
51204.000			31.131			-2.830
51304.000			31.130			-2.830
51404.000			31.129			-2.830
51504.000			31.127			-2.830
51604.000			31.124			-2.829
51705.000			31.123			-2.829
51804.000			31.123			-2.829
51904.000			31.121			-2.829
52005.000			31.120			-2.829
52103.000			31.119			-2.829
52204.000			31.118			-2.829
52305.000			31.115			-2.829
52404.000			31.113			-2.828
52504.000			31.113			-2.828
52604.000			31.113			-2.828
52704.000			31.112			-2.828
52804.000			31.111			-2.828
52905.000			31.109			-2.828
53004.000			31.106			-2.828
53104.000			31.105			-2.828
53205.000			31.105			-2.828
53303.000			31.104			-2.828
53405.000			31.102			-2.827
53504.000			31.100			-2.827
53604.000			31.100			-2.827
53705.000			31.098			-2.827
53804.000			31.097			-2.827
53904.000			31.096			-2.827
54004.000			31.094			-2.827
54104.000			31.092			-2.827
54204.000			31.092			-2.827
54305.000			31.092			-2.827
54404.000			31.091			-2.826
54503.000			31.088			-2.826
54605.000			31.088			-2.826
54704.000			31.087			-2.826
54804.000			31.086			-2.826
54905.000			31.084			-2.826
55004.000			31.084			-2.826
55104.000			31.082			-2.826
55204.000			31.080			-2.825
55304.000			31.079			-2.825
55404.000			31.079			-2.825
55505.000			31.078			-2.825
55604.000			31.075			-2.825
55704.000			31.074			-2.825
55805.000			31.074			-2.825
55903.000			31.072			-2.825
56004.000			31.072			-2.825
56105.000			31.070			-2.825
56204.000			31.068			-2.824
56304.000			31.067			-2.824
56404.000			31.066			-2.824
56504.000			31.065			-2.824
56603.000			31.064			-2.824
56704.000			31.063			-2.824
56804.000			31.061			-2.824
56905.000			31.060			-2.824
57004.000			31.059			-2.824
57104.000			31.058			-2.823
57205.000			31.056			-2.823
57303.000			31.055			-2.823
57404.000			31.054			-2.823
57505.000			31.053			-2.823
57604.000			31.051			-2.823
57704.000			31.050			-2.823
57805.000			31.049			-2.823
57904.000			31.048			-2.823
58003.000			31.048			-2.823
58105.000			31.045			-2.822
58204.000			31.045			-2.822
58304.000			31.044			-2.822
58405.000			31.043			-2.822
58503.000			31.041			-2.822
58604.000			31.040			-2.822
58705.000			31.040			-2.822
58804.000			31.038			-2.822
58904.000			31.036			-2.821
59005.000			31.036			-2.821
59104.000			31.035			-2.821
59203.000			31.033			-2.821
59305.000			31.033			-2.821
59404.000			31.032			-2.821
59504.000			31.030			-2.821
59605.000			31.030			-2.821
59704.000			31.028			-2.821
59805.000			31.027			-2.821
59903.000			31.026			-2.821
60004.000			31.025			-2.820
60105.000			31.023			-2.820
60204.000			31.023			-2.820
60304.000			31.022			-2.820
60405.000			31.022			-2.820
60504.000			31.021			-2.820
60603.000			31.019			-2.820
60705.000			31.019			-2.820
60804.000			31.017			-2.820
60904.000			31.015			-2.820
61005.000			31.014			-2.819
61103.000			31.013			-2.819
61204.000			31.013			-2.819
61305.000			31.012			-2.819
61404.000			31.011			-2.819
61504.000			31.009			-2.819
61605.000			31.008			-2.819
61704.000			31.006			-2.819
61803.000			31.006			-2.819
61905.000			31.004			-2.819
62004.000			31.003			-2.818
62104.000			31.002			-2.818
62205.000			31.001			-2.818
62303.000			31.000			-2.818
62404.000			30.998			-2.818
62505.000			30.997			-2.818
62604.000			30.997			-2.818
62704.000			30.997			-2.818
62804.000			30.995			-2.818
62904.000			30.994			-2.818
63003.000			30.993			-2.818
63104.000			30.990			-2.817
63204.000			30.989			-2.817
63305.000			30.988			-2.817
63404.000			30.988			-2.817
63504.000			30.988			-2.817
63605.000			30.987			-2.817
63703.000			30.986			-2.817
63804.000			30.984			-2.817
63905.000			30.983			-2.817
64004.000			30.981			-2.816
64104.000			30.981			-2.816
64205.000			30.979			-2.816
64304.000			30.978			-2.816
64403.000			30.977			-2.816
64505.000			30.976			-2.816
64604.000			30.975			-2.816
64704.000			30.974			-2.816
64805.000			30.973			-2.816
64904.000			30.972			-2.816
65004.000			30.972			-2.816
65104.000			30.971			-2.816
65204.000			30.969			-2.815
65304.000			30.968			-2.815
65405.000			30.967			-2.815
65504.000			30.966			-2.815
65604.000			30.965			-2.815
65705.000			30.964			-2.815
65803.000			30.962			-2.815
65904.000			30.962			-2.815
66005.000			30.961			-2.815
66104.000			30.960			-2.815
66205.000			30.958			-2.814
66304.000			30.956			-2.814
66404.000			30.956			-2.814
66504.000			30.955			-2.814
66604.000			30.955			-2.814
66703.000			30.953			-2.814
66805.000			30.952			-2.814
66904.000			30.952			-2.814
67004.000			30.952			-2.814
67105.000			30.950			-2.814
67203.000			30.949			-2.814
67304.000			30.948			-2.813
67405.000			30.946			-2.813
67504.000			30.944			-2.813
67604.000			30.944			-2.813
67705.000			30.943			-2.813
67804.000			30.942			-2.813
67904.000			30.942			-2.813
68005.000			30.942			-2.813
68103.000			30.939			-2.813
68204.000			30.938			-2.813
68305.000			30.937			-2.812
68404.000			30.937			-2.812
68504.000			30.936			-2.812
68605.000			30.935			-2.812
68704.000			30.935			-2.812
68803.000			30.934			-2.812
68905.000			30.931			-2.812
69004.000			30.931			-2.812
69104.000			30.930			-2.812
69205.000			30.929			-2.812
69304.000			30.928			-2.812
69405.000			30.927			-2.812
69503.000			30.926			-2.811
69604.000			30.925			-2.811
69705.000			30.924			-2.811
69804.000			30.922			-2.811
69904.000			30.922			-2.811
70005.000			30.922			-2.811
70104.000			30.920			-2.811
70203.000			30.918			-2.811
70305.000			30.918			-2.811
70404.000			30.918			-2.811
70504.000			30.916			-2.811
70605.000			30.915			-2.810
70704.000			30.914			-2.810
70804.000			30.914			-2.810
70904.000			30.913			-2.810
71004.000			30.910			-2.810
71104.000			30.910			-2.810
71205.000			30.909			-2.810
