# Acquired on 20/12/2023 14:17:05 
# SPIDER: Creep_-5mm_0771453C
# CREEP MEASUREMENT

# time [ms]		force [N]		stiffness [N/mm]
0.000			21.884			-4.377
100.000			24.287			-4.857
201.000			25.805			-5.161
300.000			25.745			-5.149
401.000			25.674			-5.135
502.000			25.620			-5.124
600.000			25.574			-5.115
700.000			25.535			-5.107
801.000			25.500			-5.100
900.000			25.441			-5.088
1000.000			25.416			-5.083
1102.000			25.393			-5.079
1201.000			25.371			-5.074
1300.000			25.351			-5.070
1401.000			25.332			-5.066
1500.000			25.314			-5.063
1600.000			25.280			-5.056
1701.000			25.265			-5.053
1800.000			25.251			-5.050
1901.000			25.236			-5.047
2002.000			25.223			-5.045
2100.000			25.211			-5.042
2200.000			25.198			-5.040
2301.000			25.186			-5.037
2400.000			25.164			-5.033
2500.000			25.153			-5.031
2600.000			25.144			-5.029
2701.000			25.134			-5.027
2802.000			25.125			-5.025
2900.000			25.116			-5.023
3000.000			25.106			-5.021
3101.000			25.089			-5.018
3200.000			25.080			-5.016
3300.000			25.072			-5.014
3402.000			25.064			-5.013
3501.000			25.057			-5.011
3600.000			25.049			-5.010
3701.000			25.042			-5.008
3800.000			25.029			-5.006
3900.000			25.022			-5.004
4001.000			25.015			-5.003
4100.000			25.009			-5.002
4201.000			25.003			-5.001
4302.000			24.996			-4.999
4400.000			24.989			-4.998
4500.000			24.983			-4.997
4601.000			24.971			-4.994
4700.000			24.966			-4.993
4800.000			24.960			-4.992
4902.000			24.955			-4.991
5001.000			24.950			-4.990
5101.000			24.943			-4.989
5201.000			24.938			-4.988
5300.000			24.929			-4.986
5400.000			24.923			-4.985
5501.000			24.918			-4.984
5600.000			24.913			-4.983
5702.000			24.909			-4.982
5801.000			24.905			-4.981
5900.000			24.901			-4.980
6001.000			24.896			-4.979
6100.000			24.885			-4.977
6200.000			24.881			-4.976
6301.000			24.877			-4.975
6400.000			24.875			-4.975
6501.000			24.870			-4.974
6602.000			24.865			-4.973
6700.000			24.861			-4.972
6800.000			24.854			-4.971
6901.000			24.849			-4.970
7000.000			24.846			-4.969
7100.000			24.841			-4.968
7201.000			24.837			-4.967
7301.000			24.834			-4.967
7401.000			24.830			-4.966
7501.000			24.823			-4.965
7600.000			24.820			-4.964
7700.000			24.817			-4.963
7801.000			24.812			-4.962
7900.000			24.808			-4.962
8000.000			24.805			-4.961
8102.000			24.803			-4.961
8201.000			24.799			-4.960
8300.000			24.792			-4.958
8401.000			24.789			-4.958
8500.000			24.785			-4.957
8600.000			24.783			-4.957
8701.000			24.780			-4.956
8801.000			24.776			-4.955
8902.000			24.773			-4.955
9001.000			24.766			-4.953
9100.000			24.763			-4.953
9201.000			24.761			-4.952
9300.000			24.758			-4.952
9400.000			24.754			-4.951
9501.000			24.751			-4.950
9601.000			24.750			-4.950
9701.000			24.743			-4.949
9801.000			24.742			-4.948
9900.000			24.739			-4.948
10000.000			24.735			-4.947
10101.000			24.733			-4.947
10200.000			24.731			-4.946
10300.000			24.728			-4.946
10402.000			24.725			-4.945
10501.000			24.719			-4.944
10600.000			24.717			-4.943
10701.000			24.715			-4.943
10800.000			24.713			-4.943
10900.000			24.710			-4.942
11001.000			24.707			-4.941
11100.000			24.704			-4.941
11201.000			24.700			-4.940
11302.000			24.698			-4.940
11401.000			24.694			-4.939
11500.000			24.692			-4.938
11601.000			24.689			-4.938
11700.000			24.688			-4.938
11800.000			24.686			-4.937
11901.000			24.680			-4.936
12000.000			24.679			-4.936
12102.000			24.677			-4.935
12201.000			24.675			-4.935
12300.000			24.672			-4.934
12401.000			24.670			-4.934
12500.000			24.667			-4.933
12600.000			24.664			-4.933
12701.000			24.661			-4.932
12800.000			24.658			-4.932
12901.000			24.656			-4.931
13002.000			24.654			-4.931
13100.000			24.652			-4.931
13200.000			24.650			-4.930
13301.000			24.647			-4.929
13400.000			24.643			-4.929
13500.000			24.641			-4.928
13601.000			24.640			-4.928
13701.000			24.638			-4.928
13801.000			24.635			-4.927
13901.000			24.634			-4.927
14000.000			24.631			-4.926
14100.000			24.629			-4.926
14201.000			24.625			-4.925
14300.000			24.624			-4.925
14400.000			24.622			-4.924
14502.000			24.620			-4.924
14601.000			24.618			-4.924
14700.000			24.616			-4.923
14801.000			24.614			-4.923
14900.000			24.609			-4.922
15000.000			24.608			-4.922
15101.000			24.606			-4.921
15201.000			24.604			-4.921
15302.000			24.603			-4.921
15401.000			24.601			-4.920
15500.000			24.599			-4.920
15601.000			24.595			-4.919
15700.000			24.594			-4.919
15800.000			24.592			-4.918
15901.000			24.590			-4.918
16000.000			24.588			-4.918
16101.000			24.588			-4.918
16202.000			24.585			-4.917
16300.000			24.583			-4.917
16400.000			24.580			-4.916
16501.000			24.578			-4.916
16600.000			24.577			-4.915
16700.000			24.575			-4.915
16801.000			24.574			-4.915
16901.000			24.572			-4.914
17001.000			24.570			-4.914
17101.000			24.567			-4.913
17200.000			24.565			-4.913
17300.000			24.563			-4.913
17401.000			24.562			-4.912
17500.000			24.562			-4.912
17600.000			24.559			-4.912
17702.000			24.558			-4.912
17801.000			24.555			-4.911
17900.000			24.553			-4.911
18001.000			24.552			-4.910
18100.000			24.549			-4.910
18200.000			24.549			-4.910
18301.000			24.548			-4.910
18400.000			24.546			-4.909
18502.000			24.544			-4.909
18601.000			24.541			-4.908
18700.000			24.540			-4.908
18801.000			24.539			-4.908
18900.000			24.536			-4.907
19000.000			24.534			-4.907
19101.000			24.534			-4.907
19200.000			24.533			-4.907
19301.000			24.529			-4.906
19402.000			24.528			-4.906
19500.000			24.526			-4.905
19600.000			24.525			-4.905
19701.000			24.524			-4.905
19800.000			24.523			-4.905
19900.000			24.521			-4.904
20001.000			24.519			-4.904
20101.000			24.516			-4.903
20201.000			24.515			-4.903
20301.000			24.514			-4.903
20400.000			24.513			-4.903
20500.000			24.512			-4.902
20601.000			24.510			-4.902
20700.000			24.509			-4.902
20800.000			24.507			-4.901
20902.000			24.504			-4.901
21001.000			24.504			-4.901
21100.000			24.502			-4.900
21201.000			24.501			-4.900
21300.000			24.500			-4.900
21400.000			24.499			-4.900
21501.000			24.496			-4.899
21600.000			24.495			-4.899
21702.000			24.494			-4.899
21801.000			24.492			-4.898
21900.000			24.491			-4.898
22001.000			24.489			-4.898
22100.000			24.488			-4.898
22200.000			24.487			-4.897
22301.000			24.484			-4.897
22400.000			24.483			-4.897
22501.000			24.482			-4.896
22602.000			24.481			-4.896
22700.000			24.480			-4.896
22800.000			24.479			-4.896
22901.000			24.477			-4.895
23000.000			24.475			-4.895
23100.000			24.474			-4.895
23201.000			24.472			-4.894
23301.000			24.470			-4.894
23401.000			24.470			-4.894
23501.000			24.469			-4.894
23600.000			24.468			-4.894
23700.000			24.466			-4.893
23801.000			24.464			-4.893
23900.000			24.463			-4.893
24000.000			24.461			-4.892
24102.000			24.459			-4.892
24201.000			24.459			-4.892
24300.000			24.458			-4.892
24401.000			24.457			-4.891
24500.000			24.455			-4.891
24600.000			24.454			-4.891
24701.000			24.452			-4.890
24800.000			24.452			-4.890
24902.000			24.450			-4.890
25001.000			24.448			-4.890
25100.000			24.447			-4.889
25201.000			24.444			-4.889
25300.000			24.444			-4.889
25400.000			24.444			-4.889
25501.000			24.443			-4.889
25600.000			24.441			-4.888
25701.000			24.440			-4.888
25802.000			24.439			-4.888
25900.000			24.438			-4.888
26000.000			24.435			-4.887
26101.000			24.434			-4.887
26200.000			24.434			-4.887
26300.000			24.433			-4.887
26401.000			24.431			-4.886
26501.000			24.430			-4.886
26601.000			24.430			-4.886
26701.000			24.427			-4.885
26800.000			24.426			-4.885
26900.000			24.425			-4.885
27001.000			24.424			-4.885
27100.000			24.424			-4.885
27201.000			24.422			-4.884
27302.000			24.421			-4.884
27400.000			24.419			-4.884
27500.000			24.418			-4.884
27601.000			24.417			-4.883
27700.000			24.415			-4.883
27800.000			24.413			-4.883
27901.000			24.413			-4.883
28001.000			24.413			-4.883
28102.000			24.412			-4.882
28200.000			24.410			-4.882
28300.000			24.408			-4.882
28401.000			24.407			-4.881
28500.000			24.406			-4.881
28600.000			24.405			-4.881
28701.000			24.405			-4.881
28801.000			24.404			-4.881
28901.000			24.402			-4.880
29001.000			24.402			-4.880
29100.000			24.401			-4.880
29200.000			24.399			-4.880
29301.000			24.399			-4.880
29400.000			24.397			-4.879
29500.000			24.396			-4.879
29602.000			24.395			-4.879
29701.000			24.394			-4.879
29800.000			24.393			-4.879
29901.000			24.391			-4.878
30000.000			24.390			-4.878
30100.000			24.390			-4.878
30201.000			24.389			-4.878
30300.000			24.387			-4.877
30401.000			24.386			-4.877
30502.000			24.385			-4.877
30600.000			24.384			-4.877
30700.000			24.383			-4.877
30801.000			24.382			-4.876
30900.000			24.382			-4.876
31000.000			24.381			-4.876
31101.000			24.378			-4.876
31201.000			24.377			-4.875
31302.000			24.376			-4.875
31400.000			24.376			-4.875
31500.000			24.375			-4.875
31601.000			24.374			-4.875
31700.000			24.373			-4.875
31800.000			24.372			-4.874
31901.000			24.371			-4.874
32001.000			24.370			-4.874
32101.000			24.369			-4.874
32201.000			24.368			-4.874
32300.000			24.367			-4.873
32400.000			24.367			-4.873
32501.000			24.366			-4.873
32600.000			24.363			-4.873
32700.000			24.363			-4.873
32802.000			24.362			-4.872
32901.000			24.360			-4.872
33000.000			24.359			-4.872
33101.000			24.359			-4.872
33200.000			24.359			-4.872
33300.000			24.357			-4.871
33401.000			24.356			-4.871
33500.000			24.355			-4.871
33601.000			24.354			-4.871
33702.000			24.353			-4.871
33800.000			24.352			-4.870
33900.000			24.352			-4.870
34001.000			24.351			-4.870
34100.000			24.350			-4.870
34200.000			24.349			-4.870
34301.000			24.348			-4.870
34401.000			24.347			-4.869
34502.000			24.346			-4.869
34600.000			24.345			-4.869
34700.000			24.344			-4.869
34801.000			24.343			-4.869
34900.000			24.342			-4.868
35000.000			24.341			-4.868
35101.000			24.340			-4.868
35201.000			24.340			-4.868
35301.000			24.340			-4.868
35401.000			24.339			-4.868
35500.000			24.336			-4.867
35600.000			24.335			-4.867
35701.000			24.335			-4.867
35800.000			24.334			-4.867
35900.000			24.333			-4.867
36002.000			24.332			-4.866
36101.000			24.332			-4.866
36200.000			24.331			-4.866
36301.000			24.331			-4.866
36400.000			24.329			-4.866
36500.000			24.329			-4.866
36601.000			24.328			-4.866
36701.000			24.326			-4.865
36801.000			24.326			-4.865
36902.000			24.326			-4.865
37000.000			24.324			-4.865
37100.000			24.323			-4.865
37201.000			24.322			-4.864
37300.000			24.321			-4.864
37400.000			24.321			-4.864
37502.000			24.319			-4.864
37601.000			24.319			-4.864
37702.000			24.318			-4.864
37800.000			24.317			-4.863
37900.000			24.316			-4.863
38001.000			24.316			-4.863
38100.000			24.316			-4.863
38200.000			24.314			-4.863
38302.000			24.313			-4.863
38401.000			24.313			-4.863
38500.000			24.311			-4.862
38601.000			24.311			-4.862
38700.000			24.310			-4.862
38800.000			24.309			-4.862
38901.000			24.308			-4.862
39000.000			24.308			-4.862
39101.000			24.307			-4.861
39202.000			24.305			-4.861
39300.000			24.305			-4.861
39400.000			24.304			-4.861
39501.000			24.303			-4.861
39600.000			24.302			-4.860
39700.000			24.302			-4.860
39801.000			24.302			-4.860
39901.000			24.300			-4.860
40001.000			24.300			-4.860
40101.000			24.298			-4.860
40200.000			24.298			-4.860
40300.000			24.298			-4.860
40401.000			24.296			-4.859
40500.000			24.296			-4.859
40600.000			24.295			-4.859
40702.000			24.294			-4.859
40801.000			24.294			-4.859
40900.000			24.293			-4.859
41000.000			24.292			-4.858
41100.000			24.290			-4.858
41201.000			24.290			-4.858
41300.000			24.290			-4.858
41400.000			24.289			-4.858
41502.000			24.289			-4.858
41601.000			24.288			-4.858
41700.000			24.286			-4.857
41801.000			24.286			-4.857
41900.000			24.285			-4.857
42000.000			24.285			-4.857
42101.000			24.284			-4.857
42200.000			24.282			-4.856
42301.000			24.281			-4.856
42402.000			24.280			-4.856
42500.000			24.280			-4.856
42600.000			24.281			-4.856
42701.000			24.280			-4.856
42800.000			24.278			-4.856
42900.000			24.279			-4.856
43001.000			24.278			-4.856
43101.000			24.277			-4.855
43201.000			24.276			-4.855
43301.000			24.274			-4.855
43400.000			24.274			-4.855
43500.000			24.273			-4.855
43601.000			24.273			-4.855
43700.000			24.273			-4.855
43800.000			24.270			-4.854
43902.000			24.269			-4.854
44001.000			24.269			-4.854
44100.000			24.269			-4.854
44200.000			24.269			-4.854
44300.000			24.268			-4.854
44401.000			24.266			-4.853
44500.000			24.266			-4.853
44600.000			24.265			-4.853
44702.000			24.264			-4.853
44801.000			24.265			-4.853
44900.000			24.263			-4.853
45001.000			24.264			-4.853
45100.000			24.261			-4.852
45200.000			24.260			-4.852
45301.000			24.260			-4.852
45400.000			24.260			-4.852
45501.000			24.259			-4.852
45602.000			24.259			-4.852
45700.000			24.258			-4.852
45800.000			24.257			-4.851
45901.000			24.256			-4.851
46000.000			24.255			-4.851
46100.000			24.255			-4.851
46201.000			24.255			-4.851
46301.000			24.254			-4.851
46401.000			24.252			-4.850
46501.000			24.251			-4.850
46600.000			24.252			-4.850
46700.000			24.251			-4.850
46801.000			24.250			-4.850
46900.000			24.249			-4.850
47000.000			24.248			-4.850
47102.000			24.248			-4.850
47201.000			24.248			-4.850
47300.000			24.248			-4.850
47400.000			24.246			-4.849
47500.000			24.246			-4.849
47601.000			24.246			-4.849
47700.000			24.245			-4.849
47800.000			24.245			-4.849
47902.000			24.244			-4.849
48001.000			24.242			-4.848
48100.000			24.241			-4.848
48201.000			24.241			-4.848
48300.000			24.241			-4.848
48400.000			24.239			-4.848
48501.000			24.238			-4.848
48600.000			24.238			-4.848
48701.000			24.238			-4.848
48802.000			24.238			-4.848
48900.000			24.237			-4.847
49000.000			24.236			-4.847
49101.000			24.234			-4.847
49200.000			24.234			-4.847
49300.000			24.234			-4.847
49401.000			24.233			-4.847
49501.000			24.232			-4.846
49601.000			24.232			-4.846
49701.000			24.232			-4.846
49800.000			24.230			-4.846
49900.000			24.230			-4.846
50001.000			24.230			-4.846
50100.000			24.229			-4.846
50200.000			24.228			-4.846
50302.000			24.226			-4.845
50401.000			24.226			-4.845
50500.000			24.226			-4.845
50600.000			24.226			-4.845
50700.000			24.225			-4.845
50801.000			24.225			-4.845
50900.000			24.225			-4.845
51000.000			24.222			-4.844
51102.000			24.221			-4.844
51201.000			24.221			-4.844
51300.000			24.221			-4.844
51401.000			24.220			-4.844
51500.000			24.220			-4.844
51600.000			24.219			-4.844
51701.000			24.218			-4.844
51801.000			24.217			-4.843
51901.000			24.218			-4.844
52001.000			24.217			-4.843
52100.000			24.216			-4.843
52200.000			24.216			-4.843
52301.000			24.215			-4.843
52400.000			24.214			-4.843
52500.000			24.214			-4.843
52602.000			24.213			-4.843
52701.000			24.212			-4.842
52800.000			24.211			-4.842
52901.000			24.211			-4.842
53000.000			24.210			-4.842
53100.000			24.211			-4.842
53201.000			24.209			-4.842
53301.000			24.209			-4.842
53401.000			24.209			-4.842
53502.000			24.208			-4.842
53600.000			24.207			-4.841
53700.000			24.206			-4.841
53800.000			24.206			-4.841
53900.000			24.205			-4.841
54001.000			24.205			-4.841
54101.000			24.204			-4.841
54201.000			24.204			-4.841
54301.000			24.203			-4.841
54400.000			24.203			-4.841
54500.000			24.202			-4.840
54601.000			24.201			-4.840
54700.000			24.201			-4.840
54800.000			24.200			-4.840
54902.000			24.199			-4.840
55001.000			24.198			-4.840
55100.000			24.198			-4.840
55201.000			24.198			-4.840
55300.000			24.198			-4.840
55400.000			24.195			-4.839
55501.000			24.196			-4.839
55600.000			24.196			-4.839
55701.000			24.194			-4.839
55802.000			24.193			-4.839
55901.000			24.193			-4.839
56000.000			24.193			-4.839
56101.000			24.192			-4.838
56200.000			24.192			-4.838
56300.000			24.191			-4.838
56401.000			24.191			-4.838
56501.000			24.191			-4.838
56601.000			24.191			-4.838
56701.000			24.190			-4.838
56800.000			24.189			-4.838
56900.000			24.188			-4.838
57000.000			24.188			-4.838
57100.000			24.187			-4.837
57201.000			24.187			-4.837
57300.000			24.186			-4.837
57401.000			24.185			-4.837
57502.000			24.186			-4.837
57600.000			24.184			-4.837
57700.000			24.183			-4.837
57801.000			24.182			-4.836
57900.000			24.182			-4.836
58000.000			24.181			-4.836
58101.000			24.181			-4.836
58201.000			24.180			-4.836
58301.000			24.180			-4.836
58401.000			24.180			-4.836
58500.000			24.180			-4.836
58600.000			24.179			-4.836
58701.000			24.178			-4.836
58800.000			24.177			-4.835
58900.000			24.177			-4.835
59002.000			24.176			-4.835
59101.000			24.175			-4.835
59200.000			24.175			-4.835
59301.000			24.174			-4.835
59400.000			24.174			-4.835
59500.000			24.174			-4.835
59601.000			24.173			-4.835
59700.000			24.172			-4.834
59801.000			24.171			-4.834
59902.000			24.171			-4.834
60000.000			24.172			-4.834
60100.000			24.172			-4.834
60200.000			24.170			-4.834
60300.000			24.169			-4.834
60401.000			24.168			-4.834
60500.000			24.168			-4.834
60601.000			24.166			-4.833
60702.000			24.166			-4.833
60800.000			24.167			-4.833
60900.000			24.167			-4.833
61001.000			24.166			-4.833
61100.000			24.164			-4.833
61200.000			24.163			-4.833
61301.000			24.164			-4.833
61401.000			24.163			-4.833
61501.000			24.162			-4.832
61601.000			24.162			-4.832
61700.000			24.161			-4.832
61800.000			24.161			-4.832
61901.000			24.161			-4.832
62000.000			24.160			-4.832
62100.000			24.160			-4.832
62202.000			24.159			-4.832
62301.000			24.158			-4.832
62400.000			24.159			-4.832
62501.000			24.158			-4.832
62600.000			24.158			-4.832
62700.000			24.157			-4.831
62801.000			24.157			-4.831
62900.000			24.155			-4.831
63001.000			24.156			-4.831
63102.000			24.155			-4.831
63200.000			24.154			-4.831
63300.000			24.154			-4.831
63400.000			24.153			-4.831
63500.000			24.153			-4.831
63601.000			24.152			-4.830
63701.000			24.151			-4.830
63801.000			24.152			-4.830
63901.000			24.152			-4.830
64000.000			24.150			-4.830
64100.000			24.149			-4.830
64201.000			24.149			-4.830
64300.000			24.148			-4.830
64400.000			24.147			-4.829
64502.000			24.146			-4.829
64601.000			24.147			-4.829
64700.000			24.146			-4.829
64801.000			24.146			-4.829
64900.000			24.146			-4.829
65000.000			24.145			-4.829
65101.000			24.145			-4.829
65200.000			24.144			-4.829
65301.000			24.143			-4.829
65402.000			24.142			-4.828
65500.000			24.141			-4.828
65600.000			24.141			-4.828
65701.000			24.141			-4.828
65800.000			24.141			-4.828
65900.000			24.140			-4.828
66001.000			24.140			-4.828
66101.000			24.140			-4.828
66201.000			24.139			-4.828
66301.000			24.139			-4.828
66400.000			24.139			-4.828
66500.000			24.137			-4.827
66600.000			24.137			-4.827
66700.000			24.136			-4.827
66801.000			24.136			-4.827
66901.000			24.136			-4.827
67001.000			24.135			-4.827
67101.000			24.135			-4.827
67200.000			24.134			-4.827
67300.000			24.133			-4.827
67401.000			24.132			-4.826
67500.000			24.131			-4.826
67600.000			24.131			-4.826
67702.000			24.132			-4.826
67801.000			24.132			-4.826
67900.000			24.131			-4.826
68001.000			24.129			-4.826
68100.000			24.129			-4.826
68200.000			24.129			-4.826
68301.000			24.128			-4.826
68400.000			24.128			-4.826
68501.000			24.128			-4.826
68602.000			24.127			-4.825
68701.000			24.127			-4.825
68800.000			24.127			-4.825
68901.000			24.126			-4.825
69000.000			24.125			-4.825
69100.000			24.125			-4.825
69201.000			24.123			-4.825
69300.000			24.123			-4.825
69401.000			24.123			-4.825
69502.000			24.123			-4.825
69600.000			24.123			-4.825
69700.000			24.122			-4.824
69800.000			24.121			-4.824
69900.000			24.121			-4.824
70001.000			24.121			-4.824
70100.000			24.119			-4.824
70201.000			24.119			-4.824
70302.000			24.118			-4.824
70400.000			24.117			-4.823
70500.000			24.117			-4.823
70601.000			24.118			-4.824
70700.000			24.118			-4.824
70800.000			24.117			-4.823
70901.000			24.116			-4.823
71001.000			24.116			-4.823
71101.000			24.115			-4.823
71201.000			24.115			-4.823
