# Acquired on 29/01/2024 15:59:32 
# SPIDER: Creep_-8mm_HM077x145x38AA-1
# CREEP MEASUREMENT

# time [ms]		force [N]		stiffness [N/mm]
0.000			41.085			-5.136
105.000			42.320			-5.290
204.000			42.648			-5.331
303.000			42.497			-5.312
404.000			42.406			-5.301
504.000			42.330			-5.291
605.000			42.264			-5.283
704.000			42.205			-5.276
803.000			42.152			-5.269
905.000			42.103			-5.263
1004.000			42.018			-5.252
1104.000			41.979			-5.247
1205.000			41.944			-5.243
1304.000			41.909			-5.239
1404.000			41.877			-5.235
1504.000			41.848			-5.231
1604.000			41.820			-5.228
1704.000			41.766			-5.221
1805.000			41.741			-5.218
1904.000			41.718			-5.215
2003.000			41.695			-5.212
2105.000			41.673			-5.209
2204.000			41.651			-5.206
2304.000			41.629			-5.204
2405.000			41.591			-5.199
2504.000			41.573			-5.197
2604.000			41.555			-5.194
2704.000			41.536			-5.192
2804.000			41.518			-5.190
2904.000			41.502			-5.188
3005.000			41.487			-5.186
3104.000			41.455			-5.182
3204.000			41.440			-5.180
3305.000			41.426			-5.178
3403.000			41.411			-5.176
3505.000			41.397			-5.175
3604.000			41.384			-5.173
3704.000			41.370			-5.171
3805.000			41.344			-5.168
3903.000			41.332			-5.167
4004.000			41.320			-5.165
4105.000			41.309			-5.164
4204.000			41.296			-5.162
4304.000			41.283			-5.160
4405.000			41.271			-5.159
4504.000			41.261			-5.158
4603.000			41.239			-5.155
4705.000			41.229			-5.154
4804.000			41.219			-5.152
4904.000			41.209			-5.151
5005.000			41.198			-5.150
5103.000			41.188			-5.149
5204.000			41.177			-5.147
5305.000			41.159			-5.145
5404.000			41.150			-5.144
5504.000			41.142			-5.143
5605.000			41.132			-5.142
5704.000			41.123			-5.140
5803.000			41.115			-5.139
5905.000			41.105			-5.138
6004.000			41.088			-5.136
6104.000			41.080			-5.135
6205.000			41.072			-5.134
6303.000			41.062			-5.133
6404.000			41.054			-5.132
6505.000			41.048			-5.131
6604.000			41.041			-5.130
6705.000			41.024			-5.128
6804.000			41.016			-5.127
6904.000			41.009			-5.126
7004.000			41.000			-5.125
7104.000			40.993			-5.124
7204.000			40.986			-5.123
7305.000			40.980			-5.123
7404.000			40.972			-5.122
7503.000			40.959			-5.120
7605.000			40.953			-5.119
7704.000			40.945			-5.118
7804.000			40.938			-5.117
7905.000			40.932			-5.116
8004.000			40.924			-5.116
8104.000			40.917			-5.115
8204.000			40.905			-5.113
8304.000			40.899			-5.112
8404.000			40.892			-5.112
8505.000			40.887			-5.111
8604.000			40.881			-5.110
8704.000			40.876			-5.109
8805.000			40.869			-5.109
8903.000			40.858			-5.107
9004.000			40.851			-5.106
9105.000			40.845			-5.106
9204.000			40.840			-5.105
9304.000			40.833			-5.104
9404.000			40.828			-5.104
9504.000			40.823			-5.103
9604.000			40.811			-5.101
9704.000			40.806			-5.101
9804.000			40.800			-5.100
9905.000			40.794			-5.099
10004.000			40.790			-5.099
10103.000			40.784			-5.098
10205.000			40.779			-5.097
10304.000			40.768			-5.096
10404.000			40.763			-5.095
10505.000			40.759			-5.095
10604.000			40.754			-5.094
10704.000			40.748			-5.094
10804.000			40.742			-5.093
10904.000			40.736			-5.092
11004.000			40.732			-5.091
11105.000			40.723			-5.090
11204.000			40.718			-5.090
11303.000			40.714			-5.089
11405.000			40.709			-5.089
11504.000			40.703			-5.088
11604.000			40.698			-5.087
11705.000			40.693			-5.087
11804.000			40.684			-5.086
11904.000			40.680			-5.085
12004.000			40.676			-5.085
12104.000			40.671			-5.084
12204.000			40.667			-5.083
12305.000			40.663			-5.083
12404.000			40.657			-5.082
12504.000			40.649			-5.081
12605.000			40.646			-5.081
12703.000			40.641			-5.080
12804.000			40.635			-5.079
12905.000			40.631			-5.079
13004.000			40.628			-5.078
13105.000			40.625			-5.078
13204.000			40.616			-5.077
13304.000			40.612			-5.076
13404.000			40.606			-5.076
13504.000			40.603			-5.075
13604.000			40.599			-5.075
13705.000			40.594			-5.074
13804.000			40.590			-5.074
13903.000			40.586			-5.073
14005.000			40.580			-5.072
14104.000			40.576			-5.072
14204.000			40.571			-5.071
14305.000			40.568			-5.071
14404.000			40.564			-5.070
14504.000			40.560			-5.070
14604.000			40.557			-5.070
14704.000			40.549			-5.069
14804.000			40.546			-5.068
14905.000			40.542			-5.068
15004.000			40.538			-5.067
15104.000			40.534			-5.067
15205.000			40.529			-5.066
15303.000			40.527			-5.066
15404.000			40.520			-5.065
15505.000			40.516			-5.064
15604.000			40.512			-5.064
15704.000			40.508			-5.063
15805.000			40.505			-5.063
15904.000			40.502			-5.063
16003.000			40.498			-5.062
16105.000			40.492			-5.062
16204.000			40.489			-5.061
16305.000			40.484			-5.061
16404.000			40.482			-5.060
16504.000			40.478			-5.060
16605.000			40.475			-5.059
16703.000			40.472			-5.059
16804.000			40.466			-5.058
16905.000			40.462			-5.058
17004.000			40.459			-5.057
17104.000			40.455			-5.057
17204.000			40.452			-5.056
17304.000			40.448			-5.056
17404.000			40.445			-5.056
17505.000			40.442			-5.055
17604.000			40.435			-5.054
17704.000			40.431			-5.054
17805.000			40.428			-5.053
17903.000			40.425			-5.053
18004.000			40.421			-5.053
18105.000			40.419			-5.052
18204.000			40.418			-5.052
18304.000			40.411			-5.051
18405.000			40.407			-5.051
18504.000			40.404			-5.050
18603.000			40.402			-5.050
18705.000			40.398			-5.050
18804.000			40.394			-5.049
18904.000			40.392			-5.049
19005.000			40.387			-5.048
19104.000			40.386			-5.048
19204.000			40.382			-5.048
19303.000			40.379			-5.047
19404.000			40.376			-5.047
19505.000			40.372			-5.047
19604.000			40.371			-5.046
19704.000			40.364			-5.046
19805.000			40.362			-5.045
19904.000			40.359			-5.045
20003.000			40.355			-5.044
20105.000			40.352			-5.044
20204.000			40.350			-5.044
20304.000			40.348			-5.044
20405.000			40.341			-5.043
20503.000			40.337			-5.042
20604.000			40.335			-5.042
20705.000			40.332			-5.042
20804.000			40.330			-5.041
20904.000			40.328			-5.041
21005.000			40.326			-5.041
21104.000			40.323			-5.040
21203.000			40.317			-5.040
21305.000			40.314			-5.039
21404.000			40.310			-5.039
21504.000			40.309			-5.039
21605.000			40.307			-5.038
21704.000			40.304			-5.038
21804.000			40.301			-5.038
21905.000			40.297			-5.037
22004.000			40.294			-5.037
22104.000			40.291			-5.036
22205.000			40.287			-5.036
22304.000			40.285			-5.036
22403.000			40.283			-5.035
22505.000			40.281			-5.035
22604.000			40.274			-5.034
22705.000			40.272			-5.034
22804.000			40.269			-5.034
22904.000			40.266			-5.033
23005.000			40.265			-5.033
23103.000			40.263			-5.033
23204.000			40.261			-5.033
23305.000			40.256			-5.032
23404.000			40.254			-5.032
23504.000			40.252			-5.032
23605.000			40.249			-5.031
23704.000			40.246			-5.031
23803.000			40.243			-5.030
23905.000			40.240			-5.030
24004.000			40.236			-5.030
24104.000			40.233			-5.029
24205.000			40.231			-5.029
24303.000			40.229			-5.029
24404.000			40.226			-5.028
24505.000			40.223			-5.028
24604.000			40.221			-5.028
24704.000			40.220			-5.027
24805.000			40.215			-5.027
24904.000			40.214			-5.027
25003.000			40.210			-5.026
25105.000			40.207			-5.026
25204.000			40.206			-5.026
25304.000			40.203			-5.025
25405.000			40.201			-5.025
25503.000			40.196			-5.024
25604.000			40.194			-5.024
25705.000			40.192			-5.024
25804.000			40.190			-5.024
25905.000			40.188			-5.024
26004.000			40.186			-5.023
26104.000			40.184			-5.023
26204.000			40.180			-5.022
26304.000			40.178			-5.022
26404.000			40.175			-5.022
26505.000			40.173			-5.022
26604.000			40.171			-5.021
26704.000			40.170			-5.021
26805.000			40.167			-5.021
26903.000			40.163			-5.020
27004.000			40.160			-5.020
27105.000			40.158			-5.020
27204.000			40.155			-5.019
27304.000			40.152			-5.019
27405.000			40.151			-5.019
27504.000			40.150			-5.019
27603.000			40.148			-5.018
27705.000			40.142			-5.018
27804.000			40.139			-5.017
27904.000			40.137			-5.017
28005.000			40.136			-5.017
28104.000			40.134			-5.017
28204.000			40.132			-5.016
28304.000			40.131			-5.016
28404.000			40.126			-5.016
28504.000			40.124			-5.016
28605.000			40.122			-5.015
28704.000			40.120			-5.015
28803.000			40.119			-5.015
28905.000			40.117			-5.015
29004.000			40.114			-5.014
29105.000			40.110			-5.014
29204.000			40.108			-5.014
29304.000			40.106			-5.013
29405.000			40.104			-5.013
29503.000			40.102			-5.013
29604.000			40.100			-5.012
29705.000			40.098			-5.012
29804.000			40.095			-5.012
29904.000			40.093			-5.012
30005.000			40.091			-5.011
30104.000			40.088			-5.011
30203.000			40.086			-5.011
30305.000			40.085			-5.011
30404.000			40.083			-5.010
30504.000			40.080			-5.010
30605.000			40.077			-5.010
30703.000			40.075			-5.009
30804.000			40.073			-5.009
30905.000			40.071			-5.009
31004.000			40.068			-5.009
31104.000			40.069			-5.009
31205.000			40.066			-5.008
31304.000			40.062			-5.008
31403.000			40.061			-5.008
31505.000			40.059			-5.007
31604.000			40.057			-5.007
31704.000			40.054			-5.007
31805.000			40.052			-5.007
31904.000			40.050			-5.006
32004.000			40.046			-5.006
32103.000			40.046			-5.006
32204.000			40.044			-5.005
32305.000			40.041			-5.005
32404.000			40.039			-5.005
32504.000			40.038			-5.005
32604.000			40.036			-5.004
32704.000			40.033			-5.004
32804.000			40.032			-5.004
32905.000			40.031			-5.004
33004.000			40.029			-5.004
33104.000			40.026			-5.003
33205.000			40.023			-5.003
33303.000			40.021			-5.003
33404.000			40.019			-5.002
33505.000			40.018			-5.002
33604.000			40.016			-5.002
33704.000			40.013			-5.002
33805.000			40.011			-5.001
33904.000			40.010			-5.001
34003.000			40.009			-5.001
34105.000			40.005			-5.001
34204.000			40.003			-5.000
34304.000			40.001			-5.000
34405.000			40.000			-5.000
34503.000			39.998			-5.000
34604.000			39.997			-5.000
34705.000			39.994			-4.999
34804.000			39.993			-4.999
34904.000			39.989			-4.999
35005.000			39.988			-4.998
35104.000			39.985			-4.998
35203.000			39.984			-4.998
35305.000			39.983			-4.998
35404.000			39.981			-4.998
35505.000			39.979			-4.997
35604.000			39.976			-4.997
35704.000			39.975			-4.997
35805.000			39.974			-4.997
35904.000			39.971			-4.996
36004.000			39.968			-4.996
36104.000			39.967			-4.996
36204.000			39.966			-4.996
36304.000			39.963			-4.995
36405.000			39.961			-4.995
36504.000			39.959			-4.995
36604.000			39.958			-4.995
36705.000			39.955			-4.994
36803.000			39.955			-4.994
36904.000			39.954			-4.994
37005.000			39.949			-4.994
37104.000			39.948			-4.994
37204.000			39.946			-4.993
37305.000			39.945			-4.993
37404.000			39.945			-4.993
37503.000			39.943			-4.993
37605.000			39.941			-4.993
37704.000			39.938			-4.992
37804.000			39.936			-4.992
37905.000			39.934			-4.992
38004.000			39.932			-4.992
38104.000			39.932			-4.991
38204.000			39.930			-4.991
38304.000			39.928			-4.991
38404.000			39.925			-4.991
38504.000			39.922			-4.990
38604.000			39.921			-4.990
38705.000			39.921			-4.990
38804.000			39.919			-4.990
38903.000			39.916			-4.990
39005.000			39.915			-4.989
39104.000			39.914			-4.989
39204.000			39.910			-4.989
39305.000			39.910			-4.989
39404.000			39.909			-4.989
39504.000			39.907			-4.988
39604.000			39.906			-4.988
39704.000			39.904			-4.988
39804.000			39.902			-4.988
39905.000			39.899			-4.987
40004.000			39.897			-4.987
40104.000			39.896			-4.987
40205.000			39.895			-4.987
40303.000			39.893			-4.987
40404.000			39.892			-4.987
40505.000			39.891			-4.986
40604.000			39.888			-4.986
40704.000			39.886			-4.986
40805.000			39.885			-4.986
40904.000			39.883			-4.985
41003.000			39.882			-4.985
41105.000			39.880			-4.985
41204.000			39.878			-4.985
41304.000			39.877			-4.985
41405.000			39.875			-4.984
41504.000			39.873			-4.984
41604.000			39.871			-4.984
41704.000			39.869			-4.984
41804.000			39.868			-4.983
41903.000			39.868			-4.983
42004.000			39.866			-4.983
42104.000			39.863			-4.983
42205.000			39.862			-4.983
42304.000			39.860			-4.983
42404.000			39.859			-4.982
42505.000			39.857			-4.982
42603.000			39.856			-4.982
42704.000			39.854			-4.982
42805.000			39.852			-4.982
42904.000			39.850			-4.981
43004.000			39.848			-4.981
43105.000			39.847			-4.981
43204.000			39.846			-4.981
43303.000			39.846			-4.981
43405.000			39.844			-4.981
43504.000			39.840			-4.980
43604.000			39.839			-4.980
43705.000			39.837			-4.980
43804.000			39.836			-4.980
43904.000			39.835			-4.979
44004.000			39.833			-4.979
44104.000			39.833			-4.979
44204.000			39.831			-4.979
44305.000			39.829			-4.979
44404.000			39.828			-4.978
44504.000			39.826			-4.978
44605.000			39.825			-4.978
44703.000			39.824			-4.978
44804.000			39.821			-4.978
44905.000			39.819			-4.977
45004.000			39.818			-4.977
45105.000			39.816			-4.977
45204.000			39.814			-4.977
45304.000			39.813			-4.977
45404.000			39.812			-4.977
45504.000			39.810			-4.976
45604.000			39.810			-4.976
45705.000			39.807			-4.976
45804.000			39.805			-4.976
45904.000			39.804			-4.975
46005.000			39.803			-4.975
46103.000			39.801			-4.975
46204.000			39.800			-4.975
46305.000			39.799			-4.975
46404.000			39.796			-4.974
46504.000			39.795			-4.974
46605.000			39.793			-4.974
46704.000			39.792			-4.974
46803.000			39.792			-4.974
46905.000			39.791			-4.974
47004.000			39.789			-4.974
47104.000			39.786			-4.973
47205.000			39.785			-4.973
47304.000			39.784			-4.973
47404.000			39.783			-4.973
47504.000			39.781			-4.973
47604.000			39.780			-4.973
47704.000			39.779			-4.972
47805.000			39.776			-4.972
47904.000			39.775			-4.972
48004.000			39.774			-4.972
48105.000			39.773			-4.972
48203.000			39.770			-4.971
48305.000			39.769			-4.971
48404.000			39.768			-4.971
48504.000			39.768			-4.971
48605.000			39.767			-4.971
48704.000			39.765			-4.971
48804.000			39.763			-4.970
48904.000			39.761			-4.970
49004.000			39.760			-4.970
49103.000			39.758			-4.970
49205.000			39.758			-4.970
49304.000			39.757			-4.970
49404.000			39.754			-4.969
49505.000			39.752			-4.969
49604.000			39.751			-4.969
49704.000			39.749			-4.969
49804.000			39.747			-4.968
49904.000			39.747			-4.968
50004.000			39.745			-4.968
50105.000			39.744			-4.968
50204.000			39.742			-4.968
50304.000			39.741			-4.968
50405.000			39.740			-4.968
50503.000			39.740			-4.967
50604.000			39.738			-4.967
50705.000			39.736			-4.967
50804.000			39.734			-4.967
50904.000			39.733			-4.967
51005.000			39.733			-4.967
51104.000			39.731			-4.966
51203.000			39.729			-4.966
51305.000			39.729			-4.966
51404.000			39.727			-4.966
51505.000			39.724			-4.966
51604.000			39.724			-4.965
51704.000			39.723			-4.965
51805.000			39.721			-4.965
51903.000			39.720			-4.965
52004.000			39.719			-4.965
52105.000			39.718			-4.965
52204.000			39.715			-4.964
52304.000			39.715			-4.964
52405.000			39.712			-4.964
52504.000			39.711			-4.964
52603.000			39.710			-4.964
52705.000			39.709			-4.964
52804.000			39.708			-4.963
52904.000			39.706			-4.963
53005.000			39.704			-4.963
53103.000			39.702			-4.963
53204.000			39.702			-4.963
53305.000			39.701			-4.963
53404.000			39.700			-4.962
53504.000			39.698			-4.962
53605.000			39.697			-4.962
53704.000			39.695			-4.962
53804.000			39.694			-4.962
53905.000			39.695			-4.962
54003.000			39.692			-4.962
54104.000			39.692			-4.961
54205.000			39.691			-4.961
54304.000			39.688			-4.961
54404.000			39.687			-4.961
54504.000			39.686			-4.961
54604.000			39.685			-4.961
54703.000			39.684			-4.960
54804.000			39.683			-4.960
54904.000			39.682			-4.960
55005.000			39.680			-4.960
55104.000			39.677			-4.960
55204.000			39.677			-4.960
55305.000			39.677			-4.960
55403.000			39.675			-4.959
55504.000			39.674			-4.959
55605.000			39.672			-4.959
55704.000			39.672			-4.959
55804.000			39.669			-4.959
55905.000			39.669			-4.959
56004.000			39.668			-4.958
56103.000			39.666			-4.958
56205.000			39.665			-4.958
56304.000			39.664			-4.958
56404.000			39.662			-4.958
56505.000			39.661			-4.958
56604.000			39.659			-4.957
56704.000			39.658			-4.957
56804.000			39.657			-4.957
56904.000			39.655			-4.957
57004.000			39.654			-4.957
57105.000			39.654			-4.957
57204.000			39.652			-4.956
57304.000			39.651			-4.956
57405.000			39.650			-4.956
57503.000			39.649			-4.956
57604.000			39.647			-4.956
57705.000			39.646			-4.956
57804.000			39.646			-4.956
57905.000			39.645			-4.956
58004.000			39.642			-4.955
58104.000			39.641			-4.955
58204.000			39.639			-4.955
58304.000			39.638			-4.955
58403.000			39.638			-4.955
58505.000			39.637			-4.955
58604.000			39.636			-4.955
58704.000			39.633			-4.954
58805.000			39.632			-4.954
58904.000			39.632			-4.954
59004.000			39.630			-4.954
59104.000			39.628			-4.953
59204.000			39.629			-4.954
59304.000			39.628			-4.953
59405.000			39.626			-4.953
59504.000			39.625			-4.953
59604.000			39.624			-4.953
59705.000			39.623			-4.953
59803.000			39.622			-4.953
59904.000			39.621			-4.953
60005.000			39.619			-4.952
60104.000			39.616			-4.952
60204.000			39.615			-4.952
60305.000			39.614			-4.952
60404.000			39.613			-4.952
60503.000			39.612			-4.952
60605.000			39.611			-4.951
60704.000			39.610			-4.951
60804.000			39.609			-4.951
60905.000			39.607			-4.951
61004.000			39.606			-4.951
61105.000			39.605			-4.951
61203.000			39.604			-4.950
61304.000			39.602			-4.950
61405.000			39.602			-4.950
61504.000			39.601			-4.950
61604.000			39.599			-4.950
61704.000			39.599			-4.950
61804.000			39.599			-4.950
61903.000			39.597			-4.950
62005.000			39.596			-4.950
62104.000			39.595			-4.949
62204.000			39.594			-4.949
62305.000			39.592			-4.949
62404.000			39.592			-4.949
62504.000			39.591			-4.949
62604.000			39.590			-4.949
62704.000			39.590			-4.949
62804.000			39.587			-4.948
62905.000			39.584			-4.948
63004.000			39.583			-4.948
63104.000			39.583			-4.948
63205.000			39.581			-4.948
63303.000			39.580			-4.948
63404.000			39.580			-4.947
63505.000			39.579			-4.947
63604.000			39.579			-4.947
63704.000			39.575			-4.947
63805.000			39.575			-4.947
63904.000			39.574			-4.947
64003.000			39.573			-4.947
64105.000			39.573			-4.947
64204.000			39.572			-4.946
64305.000			39.570			-4.946
64404.000			39.570			-4.946
64504.000			39.569			-4.946
64605.000			39.567			-4.946
64703.000			39.565			-4.946
64804.000			39.564			-4.946
64905.000			39.564			-4.946
65004.000			39.563			-4.945
65104.000			39.562			-4.945
65205.000			39.561			-4.945
65304.000			39.560			-4.945
65403.000			39.558			-4.945
65505.000			39.557			-4.945
65604.000			39.556			-4.945
65704.000			39.556			-4.944
65805.000			39.555			-4.944
65904.000			39.554			-4.944
66004.000			39.551			-4.944
66104.000			39.549			-4.944
66204.000			39.549			-4.944
66304.000			39.549			-4.944
66405.000			39.548			-4.944
66504.000			39.547			-4.943
66604.000			39.545			-4.943
66705.000			39.545			-4.943
66803.000			39.543			-4.943
66904.000			39.542			-4.943
67005.000			39.541			-4.943
67104.000			39.540			-4.943
67204.000			39.539			-4.942
67304.000			39.538			-4.942
67404.000			39.537			-4.942
67503.000			39.536			-4.942
67604.000			39.535			-4.942
67704.000			39.533			-4.942
67805.000			39.532			-4.942
67904.000			39.532			-4.942
68004.000			39.532			-4.941
68105.000			39.530			-4.941
68203.000			39.528			-4.941
68304.000			39.527			-4.941
68404.000			39.526			-4.941
68504.000			39.525			-4.941
68604.000			39.525			-4.941
68705.000			39.524			-4.941
68804.000			39.521			-4.940
68904.000			39.520			-4.940
69005.000			39.520			-4.940
69103.000			39.519			-4.940
69204.000			39.518			-4.940
69305.000			39.516			-4.940
69404.000			39.516			-4.939
69504.000			39.516			-4.939
69605.000			39.515			-4.939
69704.000			39.513			-4.939
69803.000			39.513			-4.939
69905.000			39.513			-4.939
70004.000			39.512			-4.939
70104.000			39.509			-4.939
70205.000			39.508			-4.939
70304.000			39.507			-4.938
70404.000			39.507			-4.938
70503.000			39.506			-4.938
70604.000			39.505			-4.938
70705.000			39.503			-4.938
70804.000			39.502			-4.938
70904.000			39.501			-4.938
71005.000			39.500			-4.937
71104.000			39.499			-4.937
71203.000			39.499			-4.937
