# Acquired on 08/01/2024 13:48:13 
# SPIDER: Creep_-2mm_07714532C-2
# CREEP MEASUREMENT

# time [ms]		force [N]		stiffness [N/mm]
0.000			2.165			-1.082
100.000			2.660			-1.330
202.000			2.896			-1.448
301.000			2.947			-1.474
400.000			2.937			-1.468
501.000			2.929			-1.464
600.000			2.923			-1.462
700.000			2.919			-1.459
801.000			2.914			-1.457
901.000			2.909			-1.454
1002.000			2.905			-1.452
1100.000			2.897			-1.448
1200.000			2.895			-1.448
1301.000			2.893			-1.446
1400.000			2.891			-1.445
1500.000			2.888			-1.444
1602.000			2.885			-1.442
1701.000			2.883			-1.442
1800.000			2.878			-1.439
1901.000			2.876			-1.438
2000.000			2.875			-1.438
2100.000			2.873			-1.436
2201.000			2.871			-1.435
2300.000			2.869			-1.435
2401.000			2.867			-1.434
2502.000			2.865			-1.432
2600.000			2.864			-1.432
2700.000			2.862			-1.431
2801.000			2.860			-1.430
2900.000			2.860			-1.430
3000.000			2.859			-1.429
3101.000			2.857			-1.428
3201.000			2.855			-1.427
3300.000			2.854			-1.427
3401.000			2.853			-1.427
3500.000			2.854			-1.427
3600.000			2.852			-1.426
3701.000			2.850			-1.425
3800.000			2.849			-1.424
3901.000			2.848			-1.424
4002.000			2.847			-1.424
4100.000			2.847			-1.423
4200.000			2.846			-1.423
4300.000			2.843			-1.422
4400.000			2.843			-1.421
4501.000			2.842			-1.421
4600.000			2.842			-1.421
4701.000			2.839			-1.420
4802.000			2.838			-1.419
4900.000			2.838			-1.419
5000.000			2.837			-1.419
5101.000			2.837			-1.418
5200.000			2.836			-1.418
5300.000			2.835			-1.417
5402.000			2.834			-1.417
5501.000			2.833			-1.417
5600.000			2.834			-1.417
5701.000			2.834			-1.417
5800.000			2.833			-1.416
5900.000			2.832			-1.416
6001.000			2.830			-1.415
6100.000			2.830			-1.415
6201.000			2.829			-1.414
6302.000			2.828			-1.414
6400.000			2.827			-1.414
6500.000			2.826			-1.413
6601.000			2.826			-1.413
6700.000			2.827			-1.413
6800.000			2.827			-1.413
6902.000			2.826			-1.413
7001.000			2.825			-1.413
7100.000			2.824			-1.412
7201.000			2.823			-1.411
7300.000			2.822			-1.411
7400.000			2.822			-1.411
7500.000			2.821			-1.411
7600.000			2.820			-1.410
7702.000			2.820			-1.410
7801.000			2.820			-1.410
7900.000			2.820			-1.410
8001.000			2.819			-1.409
8100.000			2.819			-1.410
8200.000			2.819			-1.409
8301.000			2.817			-1.408
8401.000			2.816			-1.408
8501.000			2.814			-1.407
8601.000			2.815			-1.407
8700.000			2.815			-1.407
8800.000			2.815			-1.407
8901.000			2.814			-1.407
9000.000			2.814			-1.407
9100.000			2.814			-1.407
9202.000			2.814			-1.407
9301.000			2.813			-1.407
9400.000			2.812			-1.406
9501.000			2.812			-1.406
9600.000			2.812			-1.406
9700.000			2.812			-1.406
9801.000			2.811			-1.405
9901.000			2.810			-1.405
10001.000			2.810			-1.405
10101.000			2.811			-1.405
10200.000			2.810			-1.405
10300.000			2.810			-1.405
10401.000			2.809			-1.405
10500.000			2.808			-1.404
10600.000			2.807			-1.404
10702.000			2.808			-1.404
10801.000			2.808			-1.404
10901.000			2.807			-1.403
11000.000			2.806			-1.403
11100.000			2.806			-1.403
11201.000			2.805			-1.402
11300.000			2.804			-1.402
11400.000			2.804			-1.402
11502.000			2.805			-1.403
11601.000			2.805			-1.403
11700.000			2.804			-1.402
11801.000			2.804			-1.402
11900.000			2.803			-1.402
12000.000			2.803			-1.402
12101.000			2.803			-1.401
12201.000			2.802			-1.401
12301.000			2.802			-1.401
12401.000			2.803			-1.401
12500.000			2.803			-1.401
12600.000			2.801			-1.400
12701.000			2.801			-1.400
12800.000			2.800			-1.400
12900.000			2.800			-1.400
13002.000			2.800			-1.400
13101.000			2.799			-1.400
13201.000			2.799			-1.400
13301.000			2.799			-1.399
13400.000			2.798			-1.399
13500.000			2.798			-1.399
13601.000			2.798			-1.399
13700.000			2.796			-1.398
13800.000			2.796			-1.398
13902.000			2.797			-1.398
14001.000			2.796			-1.398
14101.000			2.798			-1.399
14200.000			2.796			-1.398
14300.000			2.796			-1.398
14401.000			2.796			-1.398
14500.000			2.795			-1.398
14600.000			2.795			-1.398
14702.000			2.796			-1.398
14801.000			2.796			-1.398
14900.000			2.795			-1.397
15001.000			2.794			-1.397
15100.000			2.793			-1.397
15200.000			2.794			-1.397
15301.000			2.794			-1.397
15400.000			2.794			-1.397
15501.000			2.793			-1.396
15602.000			2.792			-1.396
15701.000			2.792			-1.396
15800.000			2.792			-1.396
15901.000			2.791			-1.396
16000.000			2.791			-1.396
16100.000			2.791			-1.395
16201.000			2.791			-1.395
16301.000			2.791			-1.395
16401.000			2.790			-1.395
16502.000			2.790			-1.395
16600.000			2.791			-1.395
16700.000			2.791			-1.395
16801.000			2.790			-1.395
16900.000			2.790			-1.395
17000.000			2.790			-1.395
17100.000			2.788			-1.394
17201.000			2.788			-1.394
17302.000			2.788			-1.394
17400.000			2.788			-1.394
17500.000			2.789			-1.394
17601.000			2.788			-1.394
17700.000			2.788			-1.394
17800.000			2.787			-1.393
17901.000			2.788			-1.394
18001.000			2.787			-1.394
18101.000			2.786			-1.393
18201.000			2.785			-1.393
18300.000			2.785			-1.393
18400.000			2.786			-1.393
18501.000			2.787			-1.393
18600.000			2.786			-1.393
18700.000			2.786			-1.393
18801.000			2.786			-1.393
18901.000			2.786			-1.393
19001.000			2.786			-1.393
19101.000			2.785			-1.393
19200.000			2.784			-1.392
19300.000			2.784			-1.392
19401.000			2.785			-1.392
19500.000			2.784			-1.392
19600.000			2.784			-1.392
19702.000			2.783			-1.392
19801.000			2.783			-1.392
19900.000			2.783			-1.391
20001.000			2.784			-1.392
20100.000			2.783			-1.392
20200.000			2.783			-1.392
20300.000			2.783			-1.391
20400.000			2.782			-1.391
20502.000			2.782			-1.391
20601.000			2.783			-1.391
20700.000			2.782			-1.391
20801.000			2.782			-1.391
20900.000			2.782			-1.391
21000.000			2.781			-1.390
21101.000			2.781			-1.390
21200.000			2.780			-1.390
21301.000			2.780			-1.390
21402.000			2.781			-1.390
21500.000			2.781			-1.390
21600.000			2.780			-1.390
21701.000			2.779			-1.390
21800.000			2.779			-1.390
21900.000			2.780			-1.390
22001.000			2.779			-1.390
22101.000			2.779			-1.389
22201.000			2.778			-1.389
22301.000			2.778			-1.389
22400.000			2.779			-1.390
22500.000			2.779			-1.389
22601.000			2.779			-1.389
22700.000			2.779			-1.390
22800.000			2.778			-1.389
22902.000			2.778			-1.389
23001.000			2.778			-1.389
23100.000			2.778			-1.389
23201.000			2.778			-1.389
23300.000			2.778			-1.389
23400.000			2.778			-1.389
23500.000			2.778			-1.389
23600.000			2.777			-1.388
23702.000			2.777			-1.389
23801.000			2.776			-1.388
23900.000			2.776			-1.388
24001.000			2.776			-1.388
24100.000			2.776			-1.388
24200.000			2.776			-1.388
24301.000			2.776			-1.388
24400.000			2.775			-1.388
24501.000			2.776			-1.388
24602.000			2.776			-1.388
24701.000			2.776			-1.388
24800.000			2.776			-1.388
24901.000			2.774			-1.387
25000.000			2.774			-1.387
25100.000			2.775			-1.387
25201.000			2.774			-1.387
25301.000			2.774			-1.387
25401.000			2.775			-1.387
25502.000			2.775			-1.387
25600.000			2.775			-1.388
25700.000			2.773			-1.387
25801.000			2.772			-1.386
25900.000			2.773			-1.386
26000.000			2.773			-1.386
26101.000			2.773			-1.386
26201.000			2.773			-1.386
26301.000			2.773			-1.386
26401.000			2.773			-1.386
26500.000			2.773			-1.386
26600.000			2.773			-1.387
26700.000			2.774			-1.387
26800.000			2.774			-1.387
26901.000			2.773			-1.387
27001.000			2.773			-1.387
27101.000			2.773			-1.387
27201.000			2.771			-1.385
27300.000			2.772			-1.386
27400.000			2.773			-1.386
27501.000			2.772			-1.386
27600.000			2.772			-1.386
27700.000			2.771			-1.386
27802.000			2.770			-1.385
27901.000			2.771			-1.386
28000.000			2.770			-1.385
28101.000			2.770			-1.385
28200.000			2.771			-1.385
28300.000			2.770			-1.385
28401.000			2.770			-1.385
28500.000			2.769			-1.384
28601.000			2.768			-1.384
28702.000			2.769			-1.385
28800.000			2.769			-1.384
28900.000			2.768			-1.384
29001.000			2.768			-1.384
29100.000			2.769			-1.384
29200.000			2.769			-1.384
29301.000			2.769			-1.384
29401.000			2.770			-1.385
29501.000			2.769			-1.384
29602.000			2.768			-1.384
29700.000			2.768			-1.384
29800.000			2.768			-1.384
29900.000			2.768			-1.384
30000.000			2.768			-1.384
30101.000			2.768			-1.384
30200.000			2.768			-1.384
30301.000			2.767			-1.383
30402.000			2.767			-1.383
30500.000			2.768			-1.384
30600.000			2.767			-1.384
30701.000			2.767			-1.383
30800.000			2.767			-1.384
30900.000			2.767			-1.383
31001.000			2.767			-1.383
31101.000			2.767			-1.384
31201.000			2.768			-1.384
31301.000			2.768			-1.384
31400.000			2.767			-1.383
31500.000			2.766			-1.383
31601.000			2.766			-1.383
31700.000			2.766			-1.383
31800.000			2.767			-1.384
31902.000			2.767			-1.383
32001.000			2.765			-1.383
32100.000			2.765			-1.382
32201.000			2.765			-1.383
32300.000			2.766			-1.383
32400.000			2.765			-1.382
32501.000			2.765			-1.382
32600.000			2.766			-1.383
32701.000			2.765			-1.383
32802.000			2.765			-1.382
32900.000			2.765			-1.382
33000.000			2.765			-1.383
33100.000			2.764			-1.382
33200.000			2.764			-1.382
33301.000			2.764			-1.382
33400.000			2.764			-1.382
33501.000			2.764			-1.382
33602.000			2.764			-1.382
33700.000			2.764			-1.382
33800.000			2.764			-1.382
33901.000			2.764			-1.382
34000.000			2.762			-1.381
34100.000			2.763			-1.382
34201.000			2.764			-1.382
34301.000			2.763			-1.382
34401.000			2.763			-1.381
34501.000			2.763			-1.382
34600.000			2.763			-1.381
34700.000			2.763			-1.382
34801.000			2.763			-1.382
34900.000			2.763			-1.381
35000.000			2.762			-1.381
35102.000			2.762			-1.381
35201.000			2.762			-1.381
35300.000			2.761			-1.381
35401.000			2.762			-1.381
35500.000			2.762			-1.381
35600.000			2.762			-1.381
35701.000			2.761			-1.381
35800.000			2.761			-1.380
35901.000			2.760			-1.380
36002.000			2.762			-1.381
36100.000			2.761			-1.380
36200.000			2.761			-1.380
36300.000			2.761			-1.380
36400.000			2.760			-1.380
36501.000			2.761			-1.380
36600.000			2.761			-1.380
36701.000			2.762			-1.381
36802.000			2.761			-1.381
36900.000			2.761			-1.380
37000.000			2.760			-1.380
37101.000			2.760			-1.380
37200.000			2.760			-1.380
37300.000			2.760			-1.380
37401.000			2.760			-1.380
37501.000			2.760			-1.380
37601.000			2.760			-1.380
37702.000			2.760			-1.380
37800.000			2.759			-1.379
37900.000			2.758			-1.379
38001.000			2.759			-1.379
38100.000			2.759			-1.379
38200.000			2.759			-1.379
38301.000			2.759			-1.379
38401.000			2.759			-1.379
38501.000			2.759			-1.379
38601.000			2.759			-1.380
38700.000			2.759			-1.379
38800.000			2.758			-1.379
38901.000			2.759			-1.379
39000.000			2.758			-1.379
39100.000			2.758			-1.379
39202.000			2.757			-1.378
39301.000			2.758			-1.379
39400.000			2.759			-1.380
39500.000			2.759			-1.380
39600.000			2.758			-1.379
39701.000			2.757			-1.379
39800.000			2.758			-1.379
39900.000			2.759			-1.380
40002.000			2.758			-1.379
40101.000			2.758			-1.379
40201.000			2.757			-1.379
40301.000			2.758			-1.379
40400.000			2.758			-1.379
40500.000			2.757			-1.378
40601.000			2.758			-1.379
40700.000			2.757			-1.379
40801.000			2.757			-1.378
40902.000			2.757			-1.378
41001.000			2.756			-1.378
41100.000			2.756			-1.378
41201.000			2.756			-1.378
41300.000			2.756			-1.378
41400.000			2.756			-1.378
41501.000			2.756			-1.378
41601.000			2.755			-1.378
41701.000			2.757			-1.378
41801.000			2.756			-1.378
41900.000			2.755			-1.377
42000.000			2.755			-1.378
42101.000			2.757			-1.378
42200.000			2.756			-1.378
42300.000			2.756			-1.378
42402.000			2.756			-1.378
42501.000			2.756			-1.378
42602.000			2.756			-1.378
42700.000			2.755			-1.378
42800.000			2.755			-1.377
42901.000			2.755			-1.377
43000.000			2.755			-1.378
43100.000			2.755			-1.377
43202.000			2.756			-1.378
43301.000			2.756			-1.378
43401.000			2.755			-1.378
43501.000			2.754			-1.377
43600.000			2.754			-1.377
43700.000			2.755			-1.377
43801.000			2.755			-1.377
43900.000			2.754			-1.377
44000.000			2.753			-1.377
44102.000			2.755			-1.377
44201.000			2.755			-1.377
44300.000			2.755			-1.377
44401.000			2.754			-1.377
44500.000			2.755			-1.377
44600.000			2.754			-1.377
44701.000			2.754			-1.377
44800.000			2.754			-1.377
44901.000			2.753			-1.377
45002.000			2.754			-1.377
45100.000			2.753			-1.377
45200.000			2.754			-1.377
45301.000			2.754			-1.377
45400.000			2.753			-1.376
45500.000			2.753			-1.376
45601.000			2.752			-1.376
45701.000			2.753			-1.377
45802.000			2.753			-1.376
45900.000			2.752			-1.376
46000.000			2.752			-1.376
46101.000			2.754			-1.377
46200.000			2.754			-1.377
46300.000			2.753			-1.376
46401.000			2.752			-1.376
46501.000			2.753			-1.377
46601.000			2.753			-1.376
46701.000			2.752			-1.376
46800.000			2.753			-1.377
46900.000			2.753			-1.377
47001.000			2.753			-1.376
47100.000			2.752			-1.376
47200.000			2.752			-1.376
47302.000			2.752			-1.376
47401.000			2.752			-1.376
47500.000			2.751			-1.376
47601.000			2.751			-1.376
47700.000			2.752			-1.376
47800.000			2.751			-1.376
47901.000			2.751			-1.376
48000.000			2.751			-1.375
48101.000			2.751			-1.375
48202.000			2.752			-1.376
48300.000			2.751			-1.375
48400.000			2.752			-1.376
48501.000			2.751			-1.376
48600.000			2.751			-1.375
48700.000			2.751			-1.375
48801.000			2.751			-1.375
48901.000			2.751			-1.375
49002.000			2.750			-1.375
49100.000			2.751			-1.375
49200.000			2.750			-1.375
49301.000			2.750			-1.375
49400.000			2.750			-1.375
49500.000			2.750			-1.375
49601.000			2.751			-1.376
49701.000			2.750			-1.375
49801.000			2.750			-1.375
49901.000			2.751			-1.375
50000.000			2.751			-1.375
50100.000			2.750			-1.375
50201.000			2.749			-1.375
50300.000			2.749			-1.375
50400.000			2.750			-1.375
50502.000			2.749			-1.375
50601.000			2.750			-1.375
50700.000			2.749			-1.375
50801.000			2.750			-1.375
50900.000			2.750			-1.375
51000.000			2.750			-1.375
51101.000			2.749			-1.375
51200.000			2.749			-1.375
51301.000			2.750			-1.375
51402.000			2.750			-1.375
51500.000			2.749			-1.375
51600.000			2.749			-1.374
51701.000			2.749			-1.375
51800.000			2.748			-1.374
51900.000			2.748			-1.374
52001.000			2.748			-1.374
52101.000			2.749			-1.375
52202.000			2.749			-1.375
52300.000			2.749			-1.374
52400.000			2.748			-1.374
52501.000			2.749			-1.374
52600.000			2.749			-1.374
52700.000			2.749			-1.375
52801.000			2.749			-1.375
52901.000			2.750			-1.375
53001.000			2.750			-1.375
53102.000			2.749			-1.375
53200.000			2.749			-1.374
53300.000			2.747			-1.374
53401.000			2.748			-1.374
53500.000			2.747			-1.373
53600.000			2.747			-1.373
53701.000			2.748			-1.374
53801.000			2.748			-1.374
53901.000			2.748			-1.374
54001.000			2.748			-1.374
54100.000			2.748			-1.374
54200.000			2.748			-1.374
54301.000			2.748			-1.374
54400.000			2.747			-1.374
54500.000			2.747			-1.374
54602.000			2.747			-1.374
54701.000			2.748			-1.374
54800.000			2.747			-1.374
54901.000			2.748			-1.374
55000.000			2.747			-1.373
55100.000			2.747			-1.373
55201.000			2.747			-1.374
55300.000			2.746			-1.373
55402.000			2.747			-1.373
55501.000			2.747			-1.374
55600.000			2.747			-1.374
55701.000			2.746			-1.373
55800.000			2.746			-1.373
55900.000			2.746			-1.373
56001.000			2.746			-1.373
56100.000			2.748			-1.374
56201.000			2.747			-1.373
56302.000			2.746			-1.373
56400.000			2.746			-1.373
56500.000			2.745			-1.372
56601.000			2.746			-1.373
56700.000			2.746			-1.373
56800.000			2.746			-1.373
56901.000			2.746			-1.373
57001.000			2.746			-1.373
57101.000			2.746			-1.373
57201.000			2.746			-1.373
57300.000			2.746			-1.373
57400.000			2.746			-1.373
57501.000			2.745			-1.373
57600.000			2.745			-1.372
57700.000			2.745			-1.373
57802.000			2.745			-1.373
57901.000			2.745			-1.372
58000.000			2.745			-1.372
58101.000			2.744			-1.372
58200.000			2.745			-1.373
58300.000			2.745			-1.373
58401.000			2.745			-1.372
58500.000			2.745			-1.372
58602.000			2.745			-1.372
58701.000			2.744			-1.372
58801.000			2.744			-1.372
58901.000			2.744			-1.372
59000.000			2.744			-1.372
59100.000			2.744			-1.372
59201.000			2.745			-1.372
59300.000			2.744			-1.372
59400.000			2.744			-1.372
59502.000			2.745			-1.372
59601.000			2.744			-1.372
59700.000			2.744			-1.372
59801.000			2.745			-1.372
59900.000			2.743			-1.372
60000.000			2.744			-1.372
60101.000			2.743			-1.372
60200.000			2.743			-1.372
60301.000			2.744			-1.372
60402.000			2.744			-1.372
60500.000			2.744			-1.372
60600.000			2.744			-1.372
60701.000			2.743			-1.372
60800.000			2.743			-1.372
60900.000			2.744			-1.372
61001.000			2.744			-1.372
61101.000			2.743			-1.372
61201.000			2.743			-1.372
61301.000			2.743			-1.372
61400.000			2.743			-1.372
61500.000			2.744			-1.372
61601.000			2.743			-1.372
61700.000			2.744			-1.372
61800.000			2.743			-1.371
61902.000			2.742			-1.371
62001.000			2.742			-1.371
62101.000			2.743			-1.371
62200.000			2.742			-1.371
62300.000			2.743			-1.371
62401.000			2.743			-1.371
62500.000			2.742			-1.371
62600.000			2.742			-1.371
62702.000			2.742			-1.371
62801.000			2.741			-1.371
62900.000			2.742			-1.371
63001.000			2.742			-1.371
63100.000			2.742			-1.371
63200.000			2.742			-1.371
63301.000			2.742			-1.371
63401.000			2.741			-1.370
63501.000			2.742			-1.371
63602.000			2.742			-1.371
63700.000			2.742			-1.371
63800.000			2.741			-1.371
63901.000			2.742			-1.371
64000.000			2.742			-1.371
64100.000			2.742			-1.371
64201.000			2.742			-1.371
64301.000			2.742			-1.371
64401.000			2.742			-1.371
64501.000			2.741			-1.370
64600.000			2.741			-1.370
64700.000			2.741			-1.370
64801.000			2.742			-1.371
64900.000			2.742			-1.371
65000.000			2.742			-1.371
65102.000			2.742			-1.371
65201.000			2.741			-1.371
65301.000			2.740			-1.370
65400.000			2.740			-1.370
65500.000			2.741			-1.370
65601.000			2.741			-1.370
65700.000			2.741			-1.370
65800.000			2.740			-1.370
65902.000			2.740			-1.370
66001.000			2.741			-1.370
66100.000			2.740			-1.370
66201.000			2.741			-1.370
66300.000			2.740			-1.370
66400.000			2.739			-1.370
66501.000			2.739			-1.370
66600.000			2.739			-1.369
66701.000			2.740			-1.370
66802.000			2.740			-1.370
66901.000			2.740			-1.370
67000.000			2.739			-1.370
67101.000			2.740			-1.370
67200.000			2.739			-1.370
67300.000			2.740			-1.370
67401.000			2.741			-1.370
67500.000			2.740			-1.370
67601.000			2.739			-1.369
67702.000			2.739			-1.369
67800.000			2.739			-1.370
67900.000			2.740			-1.370
68001.000			2.740			-1.370
68100.000			2.740			-1.370
68200.000			2.740			-1.370
68300.000			2.740			-1.370
68401.000			2.739			-1.369
68502.000			2.739			-1.370
68601.000			2.739			-1.369
68700.000			2.739			-1.369
68801.000			2.740			-1.370
68900.000			2.740			-1.370
69000.000			2.739			-1.369
69101.000			2.739			-1.370
69200.000			2.739			-1.370
69301.000			2.739			-1.369
69402.000			2.739			-1.369
69500.000			2.738			-1.369
69600.000			2.738			-1.369
69701.000			2.739			-1.369
69800.000			2.739			-1.369
69900.000			2.739			-1.369
70001.000			2.738			-1.369
70101.000			2.739			-1.369
70201.000			2.739			-1.369
70301.000			2.738			-1.369
70400.000			2.738			-1.369
70500.000			2.738			-1.369
70601.000			2.738			-1.369
70700.000			2.739			-1.369
70800.000			2.738			-1.369
70901.000			2.738			-1.369
71001.000			2.738			-1.369
71101.000			2.738			-1.369
71201.000			2.737			-1.369
71300.000			2.737			-1.368
71400.000			2.737			-1.368
71500.000			2.737			-1.369
71600.000			2.738			-1.369
71701.000			2.737			-1.369
71801.000			2.737			-1.368
71901.000			2.736			-1.368
72001.000			2.737			-1.368
72100.000			2.737			-1.369
72200.000			2.737			-1.369
72301.000			2.736			-1.368
72400.000			2.736			-1.368
72500.000			2.736			-1.368
72602.000			2.736			-1.368
72701.000			2.737			-1.368
72800.000			2.737			-1.369
72901.000			2.737			-1.368
73000.000			2.736			-1.368
73100.000			2.737			-1.369
73201.000			2.737			-1.369
73300.000			2.737			-1.369
73401.000			2.738			-1.369
73502.000			2.737			-1.369
73600.000			2.736			-1.368
73700.000			2.736			-1.368
73801.000			2.736			-1.368
73900.000			2.736			-1.368
