# Acquired on 30/01/2024 09:45:44 
# SPIDER: Creep_10mm_HM077x145x38AA-2
# CREEP MEASUREMENT

# time [ms]		force [N]		stiffness [N/mm]
0.000			-59.435			-5.943
103.000			-60.033			-6.003
205.000			-60.020			-6.002
304.000			-59.790			-5.979
403.000			-59.637			-5.964
505.000			-59.521			-5.952
604.000			-59.423			-5.942
704.000			-59.259			-5.926
805.000			-59.190			-5.919
904.000			-59.126			-5.913
1004.000			-59.066			-5.907
1104.000			-59.012			-5.901
1204.000			-58.962			-5.896
1304.000			-58.914			-5.891
1405.000			-58.828			-5.883
1504.000			-58.786			-5.879
1603.000			-58.747			-5.875
1705.000			-58.712			-5.871
1804.000			-58.678			-5.868
1904.000			-58.644			-5.864
2005.000			-58.611			-5.861
2104.000			-58.579			-5.858
2204.000			-58.520			-5.852
2303.000			-58.493			-5.849
2404.000			-58.465			-5.847
2505.000			-58.440			-5.844
2604.000			-58.415			-5.842
2704.000			-58.391			-5.839
2805.000			-58.367			-5.837
2904.000			-58.322			-5.832
3003.000			-58.301			-5.830
3105.000			-58.280			-5.828
3204.000			-58.259			-5.826
3304.000			-58.239			-5.824
3405.000			-58.219			-5.822
3503.000			-58.199			-5.820
3604.000			-58.164			-5.816
3705.000			-58.146			-5.815
3804.000			-58.129			-5.813
3904.000			-58.112			-5.811
4005.000			-58.092			-5.809
4104.000			-58.072			-5.807
4203.000			-58.055			-5.806
4305.000			-58.025			-5.802
4404.000			-58.009			-5.801
4504.000			-57.994			-5.799
4605.000			-57.979			-5.798
4704.000			-57.965			-5.796
4804.000			-57.951			-5.795
4904.000			-57.936			-5.794
5004.000			-57.923			-5.792
5104.000			-57.895			-5.789
5205.000			-57.883			-5.788
5304.000			-57.870			-5.787
5403.000			-57.857			-5.786
5505.000			-57.844			-5.784
5604.000			-57.832			-5.783
5705.000			-57.820			-5.782
5804.000			-57.797			-5.780
5904.000			-57.785			-5.779
6005.000			-57.774			-5.777
6103.000			-57.762			-5.776
6204.000			-57.751			-5.775
6305.000			-57.740			-5.774
6404.000			-57.729			-5.773
6504.000			-57.709			-5.771
6605.000			-57.697			-5.770
6704.000			-57.686			-5.769
6803.000			-57.676			-5.768
6905.000			-57.667			-5.767
7004.000			-57.657			-5.766
7104.000			-57.647			-5.765
7205.000			-57.636			-5.764
7304.000			-57.617			-5.762
7404.000			-57.608			-5.761
7504.000			-57.599			-5.760
7604.000			-57.589			-5.759
7704.000			-57.580			-5.758
7805.000			-57.571			-5.757
7904.000			-57.563			-5.756
8004.000			-57.544			-5.754
8105.000			-57.536			-5.754
8203.000			-57.528			-5.753
8304.000			-57.519			-5.752
8405.000			-57.511			-5.751
8504.000			-57.501			-5.750
8604.000			-57.493			-5.749
8704.000			15.763			1.576
8879.000			-57.461			-5.746
8967.000			-57.454			-5.745
9055.000			-57.446			-5.745
9143.000			-57.438			-5.744
9231.000			-57.430			-5.743
9319.000			-57.421			-5.742
9407.000			-57.414			-5.741
9504.000			-57.407			-5.741
9604.000			-57.400			-5.740
9703.000			-57.392			-5.739
9805.000			-57.385			-5.739
9904.000			-57.379			-5.738
10004.000			-57.372			-5.737
10105.000			-57.365			-5.736
10203.000			-57.351			-5.735
10304.000			-57.344			-5.734
10405.000			-57.336			-5.734
10504.000			-57.329			-5.733
10604.000			-57.323			-5.732
10705.000			-57.316			-5.732
10804.000			-57.310			-5.731
10903.000			-57.296			-5.730
11005.000			-57.290			-5.729
11104.000			-57.283			-5.728
11204.000			-57.277			-5.728
11305.000			-57.270			-5.727
11404.000			-57.263			-5.726
11504.000			-57.257			-5.726
11604.000			-57.251			-5.725
11704.000			-57.239			-5.724
11804.000			-57.232			-5.723
11904.000			-57.226			-5.723
12004.000			-57.220			-5.722
12105.000			-57.213			-5.721
12204.000			-57.207			-5.721
12303.000			-57.202			-5.720
12405.000			-57.191			-5.719
12504.000			-57.185			-5.719
12604.000			-57.180			-5.718
12705.000			-57.175			-5.717
12804.000			-57.168			-5.717
12904.000			-57.162			-5.716
13004.000			-57.157			-5.716
13104.000			-57.146			-5.715
13204.000			-57.140			-5.714
13305.000			-57.134			-5.713
13404.000			-57.128			-5.713
13504.000			-57.124			-5.712
13605.000			-57.118			-5.712
13703.000			-57.113			-5.711
13804.000			-57.107			-5.711
13905.000			-57.097			-5.710
14004.000			-57.092			-5.709
14104.000			-57.086			-5.709
14204.000			-57.081			-5.708
14304.000			-57.076			-5.708
14404.000			-57.072			-5.707
14505.000			-57.067			-5.707
14604.000			-57.056			-5.706
14704.000			-57.052			-5.705
14805.000			-57.047			-5.705
14903.000			-57.042			-5.704
15004.000			-57.036			-5.704
15105.000			-57.032			-5.703
15204.000			-57.026			-5.703
15305.000			-57.017			-5.702
15404.000			-57.011			-5.701
15504.000			-57.007			-5.701
15604.000			-57.002			-5.700
15704.000			-56.998			-5.700
15804.000			-56.993			-5.699
15905.000			-56.988			-5.699
16004.000			-56.983			-5.698
16104.000			-56.975			-5.697
16205.000			-56.970			-5.697
16303.000			-56.966			-5.697
16404.000			-56.961			-5.696
16505.000			-56.957			-5.696
16604.000			-56.952			-5.695
16704.000			-56.947			-5.695
16805.000			-56.939			-5.694
16904.000			-56.934			-5.693
17003.000			-56.930			-5.693
17105.000			-56.925			-5.693
17204.000			-56.920			-5.692
17304.000			-56.917			-5.692
17405.000			-56.914			-5.691
17504.000			-56.905			-5.690
17604.000			-56.900			-5.690
17704.000			-56.896			-5.690
17804.000			-56.892			-5.689
17903.000			-56.888			-5.689
18005.000			-56.884			-5.688
18104.000			-56.879			-5.688
18204.000			-56.870			-5.687
18305.000			-56.866			-5.687
18404.000			-56.861			-5.686
18505.000			-56.858			-5.686
18603.000			-56.854			-5.685
18704.000			-56.851			-5.685
18805.000			-56.846			-5.685
18904.000			-56.842			-5.684
19004.000			-56.833			-5.683
19105.000			-56.829			-5.683
19204.000			-56.825			-5.683
19303.000			-56.823			-5.682
19405.000			-56.818			-5.682
19504.000			-56.816			-5.682
19604.000			-56.812			-5.681
19705.000			-56.803			-5.680
19804.000			-56.799			-5.680
19904.000			-56.797			-5.680
20004.000			-56.792			-5.679
20104.000			-56.788			-5.679
20204.000			-56.784			-5.678
20305.000			-56.780			-5.678
20404.000			-56.773			-5.677
20504.000			-56.770			-5.677
20605.000			-56.767			-5.677
20703.000			-56.763			-5.676
20804.000			-56.759			-5.676
20905.000			-56.756			-5.676
21004.000			-56.752			-5.675
21104.000			-56.748			-5.675
21205.000			-56.742			-5.674
21304.000			-56.738			-5.674
21403.000			-56.733			-5.673
21505.000			-56.730			-5.673
21604.000			-56.727			-5.673
21705.000			-56.722			-5.672
21804.000			-56.719			-5.672
21904.000			-56.713			-5.671
22005.000			-56.709			-5.671
22103.000			-56.706			-5.671
22204.000			-56.703			-5.670
22305.000			-56.700			-5.670
22404.000			-56.696			-5.670
22504.000			-56.693			-5.669
22605.000			-56.685			-5.669
22704.000			-56.682			-5.668
22803.000			-56.678			-5.668
22905.000			-56.675			-5.667
23004.000			-56.672			-5.667
23104.000			-56.670			-5.667
23205.000			-56.666			-5.667
23304.000			-56.658			-5.666
23404.000			-56.656			-5.666
23504.000			-56.653			-5.665
23604.000			-56.650			-5.665
23704.000			-56.645			-5.665
23805.000			-56.643			-5.664
23904.000			-56.639			-5.664
24004.000			-56.637			-5.664
24105.000			-56.630			-5.663
24203.000			-56.627			-5.663
24304.000			-56.625			-5.662
24405.000			-56.621			-5.662
24504.000			-56.618			-5.662
24604.000			-56.616			-5.662
24704.000			-56.612			-5.661
24804.000			-56.607			-5.661
24903.000			-56.604			-5.660
25004.000			-56.601			-5.660
25104.000			-56.598			-5.660
25205.000			-56.595			-5.659
25304.000			-56.591			-5.659
25404.000			-56.588			-5.659
25505.000			-56.581			-5.658
25603.000			-56.578			-5.658
25704.000			-56.576			-5.658
25805.000			-56.574			-5.657
25904.000			-56.569			-5.657
26004.000			-56.566			-5.657
26105.000			-56.563			-5.656
26204.000			-56.561			-5.656
26303.000			-56.556			-5.656
26405.000			-56.553			-5.655
26504.000			-56.550			-5.655
26604.000			-56.547			-5.655
26705.000			-56.544			-5.654
26804.000			-56.541			-5.654
26904.000			-56.537			-5.654
27004.000			-56.532			-5.653
27104.000			-56.530			-5.653
27204.000			-56.527			-5.653
27305.000			-56.525			-5.652
27404.000			-56.522			-5.652
27504.000			-56.518			-5.652
27605.000			-56.516			-5.652
27703.000			-56.511			-5.651
27804.000			-56.509			-5.651
27905.000			-56.505			-5.651
28004.000			-56.501			-5.650
28105.000			-56.498			-5.650
28204.000			-56.495			-5.650
28304.000			-56.493			-5.649
28404.000			-56.491			-5.649
28504.000			-56.485			-5.649
28604.000			-56.482			-5.648
28705.000			-56.479			-5.648
28804.000			-56.477			-5.648
28904.000			-56.475			-5.648
29005.000			-56.472			-5.647
29103.000			-56.470			-5.647
29204.000			-56.464			-5.646
29305.000			-56.461			-5.646
29404.000			-56.459			-5.646
29504.000			-56.456			-5.646
29605.000			-56.453			-5.645
29704.000			-56.451			-5.645
29803.000			-56.448			-5.645
29905.000			-56.443			-5.644
30004.000			-56.441			-5.644
30104.000			-56.437			-5.644
30205.000			-56.435			-5.643
30304.000			-56.434			-5.643
30404.000			-56.432			-5.643
30504.000			-56.428			-5.643
30604.000			-56.422			-5.642
30704.000			-56.419			-5.642
30805.000			-56.416			-5.642
30904.000			-56.414			-5.641
31004.000			-56.413			-5.641
31105.000			-56.410			-5.641
31204.000			-56.407			-5.641
31305.000			-56.404			-5.640
31404.000			-56.401			-5.640
31504.000			-56.398			-5.640
31605.000			-56.395			-5.639
31703.000			-56.393			-5.639
31804.000			-56.390			-5.639
31904.000			-56.389			-5.639
32004.000			-56.386			-5.639
32104.000			-56.381			-5.638
32205.000			-56.378			-5.638
32304.000			-56.376			-5.638
32403.000			-56.373			-5.637
32505.000			-56.371			-5.637
32604.000			-56.369			-5.637
32704.000			-56.366			-5.637
32805.000			-56.362			-5.636
32904.000			-56.360			-5.636
33004.000			-56.357			-5.636
33104.000			-56.355			-5.635
33204.000			-56.353			-5.635
33304.000			-56.351			-5.635
33405.000			-56.348			-5.635
33504.000			-56.346			-5.635
33604.000			-56.341			-5.634
33705.000			-56.338			-5.634
33803.000			-56.336			-5.634
33904.000			-56.334			-5.633
34005.000			-56.331			-5.633
34104.000			-56.328			-5.633
34204.000			-56.325			-5.633
34304.000			-56.321			-5.632
34404.000			-56.319			-5.632
34503.000			-56.317			-5.632
34604.000			-56.316			-5.632
34704.000			-56.314			-5.631
34805.000			-56.312			-5.631
34904.000			-56.309			-5.631
35004.000			-56.304			-5.630
35105.000			-56.302			-5.630
35203.000			-56.301			-5.630
35304.000			-56.298			-5.630
35405.000			-56.295			-5.630
35504.000			-56.293			-5.629
35604.000			-56.291			-5.629
35704.000			-56.289			-5.629
35804.000			-56.284			-5.628
35903.000			-56.283			-5.628
36005.000			-56.281			-5.628
36104.000			-56.279			-5.628
36204.000			-56.276			-5.628
36305.000			-56.273			-5.627
36404.000			-56.272			-5.627
36504.000			-56.268			-5.627
36604.000			-56.265			-5.627
36704.000			-56.263			-5.626
36804.000			-56.261			-5.626
36905.000			-56.259			-5.626
37004.000			-56.256			-5.626
37103.000			-56.255			-5.625
37205.000			-56.251			-5.625
37304.000			-56.249			-5.625
37404.000			-56.247			-5.625
37505.000			-56.245			-5.624
37604.000			-56.242			-5.624
37705.000			-56.240			-5.624
37804.000			-56.239			-5.624
37904.000			-56.234			-5.623
38004.000			-56.232			-5.623
38104.000			-56.229			-5.623
38204.000			-56.227			-5.623
38305.000			-56.227			-5.623
38404.000			-56.224			-5.622
38503.000			-56.222			-5.622
38605.000			-56.220			-5.622
38704.000			-56.215			-5.622
38804.000			-56.213			-5.621
38905.000			-56.211			-5.621
39004.000			-56.210			-5.621
39104.000			-56.208			-5.621
39204.000			-56.205			-5.621
39304.000			-56.203			-5.620
39404.000			-56.199			-5.620
39505.000			-56.198			-5.620
39604.000			-56.197			-5.620
39704.000			-56.194			-5.619
39805.000			-56.191			-5.619
39903.000			-56.189			-5.619
40004.000			-56.188			-5.619
40105.000			-56.183			-5.618
40204.000			-56.182			-5.618
40304.000			-56.180			-5.618
40405.000			-56.178			-5.618
40504.000			-56.177			-5.618
40603.000			-56.174			-5.617
40705.000			-56.171			-5.617
40804.000			-56.169			-5.617
40905.000			-56.166			-5.617
41004.000			-56.164			-5.616
41104.000			-56.162			-5.616
41205.000			-56.160			-5.616
41303.000			-56.160			-5.616
41404.000			-56.157			-5.616
41505.000			-56.154			-5.615
41604.000			-56.152			-5.615
41704.000			-56.150			-5.615
41804.000			-56.148			-5.615
41904.000			-56.146			-5.615
42003.000			-56.143			-5.614
42105.000			-56.142			-5.614
42204.000			-56.140			-5.614
42304.000			-56.136			-5.614
42405.000			-56.135			-5.613
42503.000			-56.133			-5.613
42604.000			-56.131			-5.613
42705.000			-56.129			-5.613
42804.000			-56.127			-5.613
42904.000			-56.124			-5.612
43005.000			-56.122			-5.612
43104.000			-56.120			-5.612
43203.000			-56.118			-5.612
43305.000			-56.115			-5.612
43404.000			-56.113			-5.611
43504.000			-56.112			-5.611
43605.000			-56.111			-5.611
43704.000			-56.109			-5.611
43804.000			-56.106			-5.611
43903.000			-56.104			-5.610
44004.000			-56.102			-5.610
44105.000			-56.100			-5.610
44204.000			-56.100			-5.610
44304.000			-56.097			-5.610
44405.000			-56.094			-5.609
44504.000			-56.090			-5.609
44603.000			-56.089			-5.609
44705.000			-56.088			-5.609
44804.000			-56.086			-5.609
44904.000			-56.084			-5.608
45005.000			-56.081			-5.608
45104.000			-56.080			-5.608
45204.000			-56.077			-5.608
45304.000			-56.075			-5.608
45404.000			-56.074			-5.607
45504.000			-56.072			-5.607
45605.000			-56.070			-5.607
45704.000			-56.069			-5.607
45804.000			-56.067			-5.607
45905.000			-56.064			-5.606
46003.000			-56.060			-5.606
46104.000			-56.059			-5.606
46205.000			-56.057			-5.606
46304.000			-56.055			-5.606
46404.000			-56.054			-5.605
46504.000			-56.053			-5.605
46604.000			-56.051			-5.605
46703.000			-56.048			-5.605
46805.000			-56.046			-5.605
46904.000			-56.045			-5.604
47004.000			-56.043			-5.604
47105.000			-56.041			-5.604
47203.000			-56.040			-5.604
47305.000			-56.038			-5.604
47404.000			-56.033			-5.603
47504.000			-56.032			-5.603
47605.000			-56.031			-5.603
47704.000			-56.029			-5.603
47804.000			-56.027			-5.603
47904.000			-56.026			-5.603
48004.000			-56.022			-5.602
48104.000			-56.021			-5.602
48205.000			-56.018			-5.602
48304.000			-56.016			-5.602
48404.000			-56.015			-5.601
48505.000			-56.013			-5.601
48603.000			-56.011			-5.601
48704.000			-56.010			-5.601
48805.000			-56.008			-5.601
48904.000			-56.005			-5.601
49004.000			-56.003			-5.600
49105.000			-56.002			-5.600
49204.000			-56.000			-5.600
49303.000			-56.000			-5.600
49405.000			-55.998			-5.600
49504.000			-55.996			-5.600
49604.000			-55.991			-5.599
49705.000			-55.989			-5.599
49804.000			-55.989			-5.599
49904.000			-55.987			-5.599
50004.000			-55.986			-5.599
50104.000			-55.983			-5.598
50204.000			-55.982			-5.598
50304.000			-55.981			-5.598
50404.000			-55.977			-5.598
50505.000			-55.976			-5.598
50604.000			-55.974			-5.597
50703.000			-55.973			-5.597
50805.000			-55.971			-5.597
50904.000			-55.969			-5.597
51004.000			-55.968			-5.597
51105.000			-55.966			-5.597
51204.000			-55.964			-5.596
51304.000			-55.961			-5.596
51404.000			-55.959			-5.596
51504.000			-55.958			-5.596
51604.000			-55.956			-5.596
51705.000			-55.955			-5.596
51804.000			-55.952			-5.595
51904.000			-55.950			-5.595
52005.000			-55.949			-5.595
52103.000			-55.949			-5.595
52204.000			-55.947			-5.595
52305.000			-55.945			-5.595
52404.000			-55.943			-5.594
52504.000			-55.939			-5.594
52605.000			-55.938			-5.594
52704.000			-55.938			-5.594
52803.000			-55.937			-5.594
52905.000			-55.933			-5.593
53004.000			-55.932			-5.593
53104.000			-55.933			-5.593
53205.000			-55.931			-5.593
53304.000			-55.927			-5.593
53404.000			-55.925			-5.593
53503.000			-55.923			-5.592
53604.000			-55.922			-5.592
53705.000			-55.922			-5.592
53804.000			-55.921			-5.592
53904.000			-55.919			-5.592
54005.000			-55.916			-5.592
54104.000			-55.914			-5.591
54203.000			-55.912			-5.591
54305.000			-55.910			-5.591
54404.000			-55.908			-5.591
54504.000			-55.907			-5.591
54605.000			-55.906			-5.591
54704.000			-55.903			-5.590
54804.000			-55.900			-5.590
54904.000			-55.900			-5.590
55004.000			-55.899			-5.590
55104.000			-55.897			-5.590
55205.000			-55.895			-5.589
55304.000			-55.894			-5.589
55404.000			-55.893			-5.589
55505.000			-55.890			-5.589
55603.000			-55.889			-5.589
55704.000			-55.887			-5.589
55805.000			-55.886			-5.589
55904.000			-55.884			-5.588
56004.000			-55.883			-5.588
56105.000			-55.882			-5.588
56204.000			-55.878			-5.588
56303.000			-55.876			-5.588
56405.000			-55.874			-5.587
56504.000			-55.874			-5.587
56604.000			-55.872			-5.587
56705.000			-55.871			-5.587
56804.000			-55.869			-5.587
56905.000			-55.866			-5.587
57003.000			-55.865			-5.587
57104.000			-55.865			-5.586
57205.000			-55.863			-5.586
57304.000			-55.861			-5.586
57404.000			-55.859			-5.586
57505.000			-55.858			-5.586
57604.000			-55.856			-5.586
57703.000			-55.854			-5.585
57805.000			-55.853			-5.585
57904.000			-55.851			-5.585
58004.000			-55.850			-5.585
58105.000			-55.849			-5.585
58204.000			-55.848			-5.585
58304.000			-55.847			-5.585
58404.000			-55.843			-5.584
58504.000			-55.843			-5.584
58604.000			-55.841			-5.584
58705.000			-55.839			-5.584
58804.000			-55.838			-5.584
58904.000			-55.838			-5.584
59005.000			-55.835			-5.584
59104.000			-55.831			-5.583
59204.000			-55.831			-5.583
59304.000			-55.829			-5.583
59404.000			-55.829			-5.583
59504.000			-55.827			-5.583
59605.000			-55.825			-5.582
59704.000			-55.824			-5.582
59803.000			-55.821			-5.582
59905.000			-55.820			-5.582
60004.000			-55.819			-5.582
60105.000			-55.817			-5.582
60204.000			-55.815			-5.582
60304.000			-55.814			-5.581
60405.000			-55.813			-5.581
60503.000			-55.812			-5.581
60604.000			-55.810			-5.581
60705.000			-55.809			-5.581
60804.000			-55.808			-5.581
60904.000			-55.805			-5.581
61005.000			-55.804			-5.580
61104.000			-55.802			-5.580
61203.000			-55.800			-5.580
61305.000			-55.799			-5.580
61404.000			-55.797			-5.580
61504.000			-55.795			-5.580
61605.000			-55.795			-5.579
61704.000			-55.795			-5.579
61804.000			-55.793			-5.579
61904.000			-55.792			-5.579
62004.000			-55.789			-5.579
62104.000			-55.787			-5.579
62205.000			-55.786			-5.579
62304.000			-55.784			-5.578
62404.000			-55.783			-5.578
62505.000			-55.782			-5.578
62603.000			-55.779			-5.578
62704.000			-55.777			-5.578
62805.000			-55.777			-5.578
62904.000			-55.776			-5.578
63004.000			-55.774			-5.577
63104.000			-55.773			-5.577
63204.000			-55.771			-5.577
63303.000			-55.770			-5.577
63404.000			-55.768			-5.577
63504.000			-55.765			-5.577
63605.000			-55.763			-5.576
63704.000			-55.762			-5.576
63804.000			-55.762			-5.576
63905.000			-55.762			-5.576
64003.000			-55.761			-5.576
64104.000			-55.760			-5.576
64205.000			-55.756			-5.576
64304.000			-55.754			-5.575
64404.000			-55.753			-5.575
64505.000			-55.753			-5.575
64604.000			-55.752			-5.575
64703.000			-55.750			-5.575
64805.000			-55.747			-5.575
64904.000			-55.747			-5.575
65004.000			-55.745			-5.575
65105.000			-55.744			-5.574
65204.000			-55.742			-5.574
65304.000			-55.740			-5.574
65404.000			-55.738			-5.574
65504.000			-55.738			-5.574
65604.000			-55.737			-5.574
65705.000			-55.734			-5.573
65804.000			-55.733			-5.573
65904.000			-55.731			-5.573
66005.000			-55.730			-5.573
66104.000			-55.730			-5.573
66204.000			-55.729			-5.573
66305.000			-55.728			-5.573
66404.000			-55.724			-5.572
66505.000			-55.724			-5.572
66604.000			-55.723			-5.572
66704.000			-55.721			-5.572
66805.000			-55.720			-5.572
66904.000			-55.719			-5.572
67003.000			-55.718			-5.572
67105.000			-55.715			-5.572
67204.000			-55.714			-5.571
67304.000			-55.714			-5.571
67405.000			-55.712			-5.571
67504.000			-55.710			-5.571
67604.000			-55.708			-5.571
67704.000			-55.707			-5.571
67804.000			-55.707			-5.571
67904.000			-55.704			-5.570
68005.000			-55.703			-5.570
68104.000			-55.702			-5.570
68204.000			-55.699			-5.570
68305.000			-55.699			-5.570
68403.000			-55.697			-5.570
68504.000			-55.697			-5.570
68605.000			-55.694			-5.569
68704.000			-55.692			-5.569
