# Acquired on 29/01/2024 11:23:06 
# SPIDER: Creep_7mm_HM077x145x38AB-1
# CREEP MEASUREMENT

# time [ms]		force [N]		stiffness [N/mm]
0.000			-23.798			-3.400
105.000			-24.031			-3.433
204.000			-24.013			-3.430
304.000			-23.923			-3.418
405.000			-23.859			-3.408
504.000			-23.807			-3.401
604.000			-23.763			-3.395
705.000			-23.691			-3.384
804.000			-23.660			-3.380
904.000			-23.632			-3.376
1003.000			-23.607			-3.372
1104.000			-23.583			-3.369
1205.000			-23.559			-3.366
1304.000			-23.537			-3.362
1404.000			-23.516			-3.359
1504.000			-23.478			-3.354
1604.000			-23.460			-3.351
1704.000			-23.443			-3.349
1805.000			-23.427			-3.347
1904.000			-23.412			-3.345
2004.000			-23.398			-3.343
2105.000			-23.384			-3.341
2203.000			-23.355			-3.336
2304.000			-23.343			-3.335
2405.000			-23.331			-3.333
2504.000			-23.319			-3.331
2604.000			-23.308			-3.330
2704.000			-23.296			-3.328
2804.000			-23.285			-3.326
2903.000			-23.265			-3.324
3005.000			-23.254			-3.322
3104.000			-23.245			-3.321
3204.000			-23.236			-3.319
3305.000			-23.227			-3.318
3403.000			-23.218			-3.317
3504.000			-23.209			-3.316
3605.000			-23.191			-3.313
3704.000			-23.183			-3.312
3804.000			-23.175			-3.311
3905.000			-23.166			-3.309
4004.000			-23.158			-3.308
4103.000			-23.152			-3.307
4205.000			-23.143			-3.306
4304.000			-23.129			-3.304
4405.000			-23.123			-3.303
4504.000			-23.115			-3.302
4603.000			-23.108			-3.301
4705.000			-23.102			-3.300
4804.000			-23.096			-3.299
4904.000			-23.089			-3.298
5005.000			-23.081			-3.297
5104.000			-23.070			-3.296
5204.000			-23.064			-3.295
5304.000			-23.056			-3.294
5404.000			-23.051			-3.293
5504.000			-23.046			-3.292
5605.000			-23.040			-3.291
5704.000			-23.034			-3.291
5803.000			-23.022			-3.289
5905.000			-23.017			-3.288
6004.000			-23.012			-3.287
6104.000			-23.007			-3.287
6205.000			-23.002			-3.286
6304.000			-22.996			-3.285
6404.000			-22.991			-3.284
6504.000			-22.982			-3.283
6604.000			-22.977			-3.282
6704.000			-22.971			-3.282
6805.000			-22.965			-3.281
6904.000			-22.960			-3.280
7003.000			-22.956			-3.279
7105.000			-22.952			-3.279
7204.000			-22.943			-3.278
7304.000			-22.938			-3.277
7405.000			-22.933			-3.276
7504.000			-22.929			-3.276
7605.000			-22.924			-3.275
7703.000			-22.919			-3.274
7804.000			-22.916			-3.274
7905.000			-22.912			-3.273
8004.000			-22.904			-3.272
8104.000			-22.900			-3.271
8205.000			-22.894			-3.271
8304.000			-22.889			-3.270
8403.000			-22.886			-3.269
8505.000			-22.882			-3.269
8604.000			-22.879			-3.268
8704.000			-22.871			-3.267
8805.000			-22.867			-3.267
8904.000			-22.864			-3.266
9004.000			-22.860			-3.266
9104.000			-22.855			-3.265
9204.000			-22.851			-3.264
9304.000			-22.848			-3.264
9405.000			-22.841			-3.263
9504.000			-22.838			-3.263
9603.000			-22.834			-3.262
9705.000			-22.830			-3.261
9804.000			-22.827			-3.261
9904.000			-22.824			-3.261
10005.000			-22.820			-3.260
10104.000			-22.814			-3.259
10204.000			-22.810			-3.259
10304.000			-22.806			-3.258
10404.000			-22.803			-3.258
10504.000			-22.799			-3.257
10604.000			-22.796			-3.257
10704.000			-22.793			-3.256
10805.000			-22.788			-3.255
10904.000			-22.785			-3.255
11003.000			-22.780			-3.254
11105.000			-22.777			-3.254
11204.000			-22.775			-3.254
11304.000			-22.772			-3.253
11405.000			-22.768			-3.253
11504.000			-22.765			-3.252
11604.000			-22.759			-3.251
11704.000			-22.757			-3.251
11804.000			-22.753			-3.250
11904.000			-22.750			-3.250
12005.000			-22.747			-3.250
12104.000			-22.744			-3.249
12203.000			-22.741			-3.249
12305.000			-22.736			-3.248
12404.000			-22.733			-3.248
12504.000			-22.730			-3.247
12605.000			-22.727			-3.247
12704.000			-22.724			-3.246
12804.000			-22.722			-3.246
12904.000			-22.719			-3.246
13004.000			-22.713			-3.245
13104.000			-22.711			-3.244
13205.000			-22.708			-3.244
13304.000			-22.706			-3.244
13404.000			-22.701			-3.243
13505.000			-22.699			-3.243
13603.000			-22.697			-3.242
13704.000			-22.691			-3.242
13805.000			-22.689			-3.241
13904.000			-22.686			-3.241
14005.000			-22.685			-3.241
14104.000			-22.681			-3.240
14204.000			-22.678			-3.240
14304.000			-22.677			-3.240
14404.000			-22.676			-3.239
14504.000			-22.669			-3.238
14605.000			-22.667			-3.238
14704.000			-22.665			-3.238
14804.000			-22.663			-3.238
14905.000			-22.659			-3.237
15003.000			-22.657			-3.237
15104.000			-22.655			-3.236
15205.000			-22.650			-3.236
15304.000			-22.648			-3.235
15404.000			-22.646			-3.235
15504.000			-22.642			-3.235
15604.000			-22.641			-3.234
15704.000			-22.639			-3.234
15805.000			-22.636			-3.234
15904.000			-22.633			-3.233
16004.000			-22.630			-3.233
16105.000			-22.627			-3.232
16203.000			-22.625			-3.232
16304.000			-22.623			-3.232
16405.000			-22.622			-3.232
16504.000			-22.620			-3.231
16604.000			-22.614			-3.231
16705.000			-22.613			-3.230
16804.000			-22.610			-3.230
16903.000			-22.608			-3.230
17005.000			-22.606			-3.229
17104.000			-22.603			-3.229
17205.000			-22.602			-3.229
17304.000			-22.596			-3.228
17404.000			-22.594			-3.228
17505.000			-22.593			-3.228
17603.000			-22.592			-3.227
17704.000			-22.590			-3.227
17805.000			-22.587			-3.227
17904.000			-22.585			-3.226
18004.000			-22.584			-3.226
18105.000			-22.579			-3.226
18204.000			-22.577			-3.225
18303.000			-22.574			-3.225
18405.000			-22.572			-3.225
18504.000			-22.571			-3.224
18604.000			-22.569			-3.224
18705.000			-22.567			-3.224
18804.000			-22.564			-3.223
18904.000			-22.561			-3.223
19004.000			-22.560			-3.223
19104.000			-22.557			-3.222
19204.000			-22.555			-3.222
19305.000			-22.553			-3.222
19404.000			-22.551			-3.222
19503.000			-22.548			-3.221
19605.000			-22.546			-3.221
19704.000			-22.544			-3.221
19804.000			-22.542			-3.220
19905.000			-22.541			-3.220
20004.000			-22.539			-3.220
20104.000			-22.537			-3.220
20203.000			-22.533			-3.219
20304.000			-22.531			-3.219
20405.000			-22.530			-3.219
20504.000			-22.529			-3.218
20604.000			-22.526			-3.218
20705.000			-22.524			-3.218
20804.000			-22.522			-3.217
20903.000			-22.520			-3.217
21005.000			-22.517			-3.217
21104.000			-22.515			-3.216
21204.000			-22.513			-3.216
21305.000			-22.512			-3.216
21404.000			-22.511			-3.216
21504.000			-22.509			-3.216
21604.000			-22.507			-3.215
21704.000			-22.503			-3.215
21804.000			-22.502			-3.215
21905.000			-22.501			-3.214
22004.000			-22.499			-3.214
22103.000			-22.497			-3.214
22205.000			-22.495			-3.214
22304.000			-22.494			-3.213
22404.000			-22.490			-3.213
22505.000			-22.488			-3.213
22604.000			-22.487			-3.212
22704.000			-22.485			-3.212
22804.000			-22.484			-3.212
22904.000			-22.482			-3.212
23004.000			-22.481			-3.212
23105.000			-22.477			-3.211
23204.000			-22.475			-3.211
23304.000			-22.474			-3.211
23405.000			-22.473			-3.210
23503.000			-22.471			-3.210
23605.000			-22.469			-3.210
23704.000			-22.468			-3.210
23804.000			-22.465			-3.209
23905.000			-22.463			-3.209
24004.000			-22.462			-3.209
24104.000			-22.460			-3.209
24204.000			-22.458			-3.208
24304.000			-22.457			-3.208
24404.000			-22.455			-3.208
24505.000			-22.453			-3.208
24604.000			-22.450			-3.207
24704.000			-22.449			-3.207
24805.000			-22.447			-3.207
24903.000			-22.445			-3.206
25004.000			-22.444			-3.206
25105.000			-22.443			-3.206
25204.000			-22.441			-3.206
25304.000			-22.438			-3.205
25404.000			-22.437			-3.205
25504.000			-22.436			-3.205
25604.000			-22.434			-3.205
25705.000			-22.432			-3.205
25804.000			-22.431			-3.204
25904.000			-22.430			-3.204
26005.000			-22.426			-3.204
26103.000			-22.426			-3.204
26204.000			-22.424			-3.203
26305.000			-22.423			-3.203
26404.000			-22.422			-3.203
26504.000			-22.419			-3.203
26604.000			-22.418			-3.203
26704.000			-22.416			-3.202
26804.000			-22.414			-3.202
26904.000			-22.413			-3.202
27004.000			-22.411			-3.202
27105.000			-22.410			-3.201
27204.000			-22.408			-3.201
27303.000			-22.407			-3.201
27405.000			-22.404			-3.201
27504.000			-22.403			-3.200
27604.000			-22.401			-3.200
27705.000			-22.400			-3.200
27804.000			-22.399			-3.200
27904.000			-22.396			-3.199
28004.000			-22.395			-3.199
28104.000			-22.394			-3.199
28204.000			-22.392			-3.199
28305.000			-22.390			-3.199
28404.000			-22.390			-3.199
28504.000			-22.388			-3.198
28605.000			-22.387			-3.198
28703.000			-22.386			-3.198
28804.000			-22.384			-3.198
28905.000			-22.381			-3.197
29004.000			-22.379			-3.197
29104.000			-22.378			-3.197
29205.000			-22.377			-3.197
29304.000			-22.376			-3.197
29403.000			-22.374			-3.196
29505.000			-22.374			-3.196
29604.000			-22.370			-3.196
29704.000			-22.369			-3.196
29805.000			-22.368			-3.195
29904.000			-22.367			-3.195
30005.000			-22.366			-3.195
30103.000			-22.364			-3.195
30204.000			-22.363			-3.195
30305.000			-22.360			-3.194
30404.000			-22.359			-3.194
30504.000			-22.359			-3.194
30605.000			-22.358			-3.194
30704.000			-22.356			-3.194
30803.000			-22.355			-3.194
30905.000			-22.354			-3.193
31004.000			-22.354			-3.193
31104.000			-22.350			-3.193
31205.000			-22.348			-3.193
31303.000			-22.347			-3.192
31404.000			-22.345			-3.192
31505.000			-22.344			-3.192
31604.000			-22.344			-3.192
31704.000			-22.343			-3.192
31805.000			-22.340			-3.191
31904.000			-22.338			-3.191
32003.000			-22.337			-3.191
32105.000			-22.336			-3.191
32204.000			-22.335			-3.191
32304.000			-22.334			-3.191
32405.000			-22.333			-3.190
32504.000			-22.331			-3.190
32604.000			-22.329			-3.190
32704.000			-22.327			-3.190
32804.000			-22.326			-3.189
32904.000			-22.325			-3.189
33004.000			-22.324			-3.189
33104.000			-22.323			-3.189
33205.000			-22.321			-3.189
33304.000			-22.320			-3.189
33403.000			-22.318			-3.188
33505.000			-22.317			-3.188
33604.000			-22.316			-3.188
33704.000			-22.316			-3.188
33805.000			-22.314			-3.188
33904.000			-22.311			-3.187
34004.000			-22.310			-3.187
34104.000			-22.309			-3.187
34204.000			-22.308			-3.187
34304.000			-22.306			-3.187
34405.000			-22.304			-3.186
34504.000			-22.303			-3.186
34603.000			-22.304			-3.186
34705.000			-22.300			-3.186
34804.000			-22.299			-3.186
34904.000			-22.299			-3.186
35005.000			-22.298			-3.185
35104.000			-22.297			-3.185
35204.000			-22.295			-3.185
35304.000			-22.294			-3.185
35404.000			-22.292			-3.185
35504.000			-22.291			-3.184
35605.000			-22.290			-3.184
35704.000			-22.289			-3.184
35804.000			-22.289			-3.184
35905.000			-22.287			-3.184
36003.000			-22.285			-3.184
36104.000			-22.283			-3.183
36205.000			-22.282			-3.183
36304.000			-22.280			-3.183
36405.000			-22.280			-3.183
36503.000			-22.280			-3.183
36604.000			-22.279			-3.183
36705.000			-22.277			-3.182
36804.000			-22.274			-3.182
36904.000			-22.273			-3.182
37005.000			-22.273			-3.182
37104.000			-22.272			-3.182
37203.000			-22.271			-3.182
37305.000			-22.269			-3.181
37404.000			-22.267			-3.181
37504.000			-22.267			-3.181
37605.000			-22.266			-3.181
37704.000			-22.264			-3.181
37804.000			-22.263			-3.180
37904.000			-22.262			-3.180
38004.000			-22.261			-3.180
38104.000			-22.260			-3.180
38205.000			-22.259			-3.180
38304.000			-22.256			-3.179
38404.000			-22.256			-3.179
38505.000			-22.255			-3.179
38603.000			-22.254			-3.179
38704.000			-22.254			-3.179
38805.000			-22.253			-3.179
38904.000			-22.251			-3.179
39004.000			-22.250			-3.179
39104.000			-22.249			-3.178
39204.000			-22.247			-3.178
39303.000			-22.246			-3.178
39405.000			-22.245			-3.178
39504.000			-22.245			-3.178
39605.000			-22.243			-3.178
39704.000			-22.241			-3.177
39803.000			-22.241			-3.177
39905.000			-22.240			-3.177
40004.000			-22.239			-3.177
40104.000			-22.237			-3.177
40205.000			-22.236			-3.177
40304.000			-22.236			-3.177
40404.000			-22.234			-3.176
40504.000			-22.233			-3.176
40604.000			-22.232			-3.176
40704.000			-22.230			-3.176
40805.000			-22.228			-3.175
40904.000			-22.227			-3.175
41004.000			-22.227			-3.175
41105.000			-22.226			-3.175
41203.000			-22.223			-3.175
41304.000			-22.222			-3.175
41405.000			-22.222			-3.175
41504.000			-22.222			-3.175
41604.000			-22.220			-3.174
41704.000			-22.219			-3.174
41804.000			-22.218			-3.174
41904.000			-22.217			-3.174
42005.000			-22.216			-3.174
42104.000			-22.214			-3.173
42204.000			-22.214			-3.173
42305.000			-22.212			-3.173
42403.000			-22.213			-3.173
42504.000			-22.211			-3.173
42605.000			-22.209			-3.173
42704.000			-22.208			-3.173
42805.000			-22.207			-3.172
42903.000			-22.206			-3.172
43004.000			-22.205			-3.172
43105.000			-22.204			-3.172
43204.000			-22.204			-3.172
43304.000			-22.202			-3.172
43405.000			-22.201			-3.172
43504.000			-22.201			-3.172
43603.000			-22.199			-3.171
43705.000			-22.199			-3.171
43804.000			-22.198			-3.171
43904.000			-22.196			-3.171
44005.000			-22.196			-3.171
44104.000			-22.194			-3.171
44204.000			-22.193			-3.170
44304.000			-22.191			-3.170
44404.000			-22.190			-3.170
44504.000			-22.190			-3.170
44605.000			-22.190			-3.170
44704.000			-22.188			-3.170
44804.000			-22.187			-3.170
44905.000			-22.186			-3.169
45003.000			-22.185			-3.169
45104.000			-22.184			-3.169
45205.000			-22.183			-3.169
45304.000			-22.182			-3.169
45404.000			-22.181			-3.169
45504.000			-22.179			-3.168
45604.000			-22.178			-3.168
45704.000			-22.178			-3.168
45804.000			-22.176			-3.168
45904.000			-22.176			-3.168
46005.000			-22.176			-3.168
46104.000			-22.175			-3.168
46203.000			-22.173			-3.168
46305.000			-22.173			-3.168
46404.000			-22.172			-3.167
46504.000			-22.171			-3.167
46605.000			-22.170			-3.167
46704.000			-22.169			-3.167
46804.000			-22.168			-3.167
46904.000			-22.167			-3.167
47004.000			-22.166			-3.167
47104.000			-22.165			-3.166
47205.000			-22.163			-3.166
47304.000			-22.162			-3.166
47404.000			-22.162			-3.166
47505.000			-22.161			-3.166
47603.000			-22.160			-3.166
47704.000			-22.159			-3.166
47805.000			-22.158			-3.165
47904.000			-22.157			-3.165
48004.000			-22.155			-3.165
48105.000			-22.155			-3.165
48204.000			-22.154			-3.165
48303.000			-22.153			-3.165
48405.000			-22.153			-3.165
48504.000			-22.151			-3.164
48604.000			-22.150			-3.164
48705.000			-22.149			-3.164
48803.000			-22.148			-3.164
48904.000			-22.148			-3.164
49005.000			-22.147			-3.164
49104.000			-22.145			-3.164
49205.000			-22.145			-3.164
49304.000			-22.143			-3.163
49404.000			-22.143			-3.163
49504.000			-22.143			-3.163
49604.000			-22.142			-3.163
49704.000			-22.141			-3.163
49805.000			-22.138			-3.163
49904.000			-22.138			-3.163
50004.000			-22.138			-3.163
50105.000			-22.137			-3.162
50203.000			-22.136			-3.162
50304.000			-22.135			-3.162
50405.000			-22.134			-3.162
50504.000			-22.134			-3.162
50604.000			-22.133			-3.162
50705.000			-22.132			-3.162
50804.000			-22.130			-3.161
50903.000			-22.130			-3.161
51005.000			-22.129			-3.161
51104.000			-22.128			-3.161
51204.000			-22.127			-3.161
51305.000			-22.125			-3.161
51403.000			-22.125			-3.161
51504.000			-22.124			-3.161
51605.000			-22.124			-3.161
51704.000			-22.123			-3.160
51804.000			-22.122			-3.160
51905.000			-22.121			-3.160
52004.000			-22.118			-3.160
52103.000			-22.118			-3.160
52205.000			-22.118			-3.160
52304.000			-22.117			-3.160
52405.000			-22.116			-3.159
52504.000			-22.115			-3.159
52604.000			-22.113			-3.159
52705.000			-22.114			-3.159
52803.000			-22.113			-3.159
52904.000			-22.112			-3.159
53005.000			-22.111			-3.159
53104.000			-22.110			-3.159
53204.000			-22.109			-3.158
53304.000			-22.109			-3.158
53404.000			-22.107			-3.158
53504.000			-22.105			-3.158
53605.000			-22.105			-3.158
53704.000			-22.106			-3.158
53804.000			-22.105			-3.158
53905.000			-22.103			-3.158
54003.000			-22.101			-3.157
54104.000			-22.102			-3.157
54205.000			-22.101			-3.157
54304.000			-22.101			-3.157
54404.000			-22.100			-3.157
54504.000			-22.099			-3.157
54604.000			-22.097			-3.157
54704.000			-22.095			-3.156
54805.000			-22.096			-3.157
54904.000			-22.095			-3.156
55004.000			-22.094			-3.156
55105.000			-22.094			-3.156
55203.000			-22.093			-3.156
55304.000			-22.092			-3.156
55405.000			-22.091			-3.156
55504.000			-22.091			-3.156
55605.000			-22.089			-3.156
55704.000			-22.088			-3.155
55804.000			-22.087			-3.155
55904.000			-22.086			-3.155
56004.000			-22.085			-3.155
56104.000			-22.085			-3.155
56205.000			-22.085			-3.155
56304.000			-22.083			-3.155
56404.000			-22.082			-3.155
56505.000			-22.082			-3.155
56603.000			-22.081			-3.154
56704.000			-22.080			-3.154
56805.000			-22.079			-3.154
56904.000			-22.078			-3.154
57004.000			-22.077			-3.154
57105.000			-22.077			-3.154
57204.000			-22.076			-3.154
57303.000			-22.076			-3.154
57405.000			-22.074			-3.153
57504.000			-22.073			-3.153
57604.000			-22.072			-3.153
57705.000			-22.072			-3.153
57804.000			-22.071			-3.153
57904.000			-22.070			-3.153
58004.000			-22.070			-3.153
58104.000			-22.069			-3.153
58204.000			-22.068			-3.153
58305.000			-22.068			-3.153
58404.000			-22.066			-3.152
58504.000			-22.065			-3.152
58605.000			-22.065			-3.152
58703.000			-22.064			-3.152
58805.000			-22.063			-3.152
58904.000			-22.063			-3.152
59004.000			-22.062			-3.152
59105.000			-22.061			-3.152
59204.000			-22.061			-3.152
59304.000			-22.060			-3.151
59404.000			-22.059			-3.151
59504.000			-22.058			-3.151
59604.000			-22.057			-3.151
59705.000			-22.057			-3.151
59804.000			-22.057			-3.151
59904.000			-22.056			-3.151
60005.000			-22.053			-3.150
60103.000			-22.053			-3.150
60204.000			-22.053			-3.150
60305.000			-22.051			-3.150
60404.000			-22.050			-3.150
60504.000			-22.050			-3.150
60604.000			-22.049			-3.150
60704.000			-22.049			-3.150
60804.000			-22.048			-3.150
60905.000			-22.048			-3.150
61004.000			-22.046			-3.149
61104.000			-22.046			-3.149
61205.000			-22.046			-3.149
61303.000			-22.045			-3.149
61404.000			-22.044			-3.149
61505.000			-22.043			-3.149
61604.000			-22.042			-3.149
61704.000			-22.041			-3.149
61803.000			-22.041			-3.149
61904.000			-22.040			-3.149
62005.000			-22.040			-3.149
62104.000			-22.038			-3.148
62204.000			-22.037			-3.148
62305.000			-22.037			-3.148
62404.000			-22.036			-3.148
62503.000			-22.035			-3.148
62605.000			-22.034			-3.148
62704.000			-22.034			-3.148
62804.000			-22.033			-3.148
62905.000			-22.032			-3.147
63004.000			-22.032			-3.147
63104.000			-22.032			-3.147
63204.000			-22.031			-3.147
63304.000			-22.030			-3.147
63404.000			-22.029			-3.147
63505.000			-22.029			-3.147
63604.000			-22.027			-3.147
63703.000			-22.026			-3.147
63805.000			-22.025			-3.146
63904.000			-22.025			-3.146
64004.000			-22.025			-3.146
64105.000			-22.025			-3.146
64204.000			-22.024			-3.146
64304.000			-22.023			-3.146
64404.000			-22.022			-3.146
64504.000			-22.021			-3.146
64604.000			-22.020			-3.146
64705.000			-22.019			-3.146
64804.000			-22.020			-3.146
64904.000			-22.019			-3.146
65005.000			-22.017			-3.145
65103.000			-22.017			-3.145
65205.000			-22.016			-3.145
65304.000			-22.015			-3.145
65404.000			-22.014			-3.145
65505.000			-22.014			-3.145
65604.000			-22.014			-3.145
65704.000			-22.013			-3.145
65804.000			-22.012			-3.145
65904.000			-22.013			-3.145
66004.000			-22.012			-3.145
66105.000			-22.011			-3.144
66204.000			-22.009			-3.144
66303.000			-22.009			-3.144
66405.000			-22.008			-3.144
66504.000			-22.007			-3.144
66604.000			-22.005			-3.144
66705.000			-22.005			-3.144
66804.000			-22.005			-3.144
66904.000			-22.004			-3.143
67004.000			-22.004			-3.143
67104.000			-22.003			-3.143
67204.000			-22.002			-3.143
67305.000			-22.001			-3.143
67404.000			-22.001			-3.143
67504.000			-22.000			-3.143
67605.000			-21.999			-3.143
67703.000			-21.998			-3.143
67804.000			-21.997			-3.142
67905.000			-21.997			-3.142
68004.000			-21.997			-3.142
68104.000			-21.996			-3.142
68204.000			-21.996			-3.142
68304.000			-21.995			-3.142
68404.000			-21.994			-3.142
68504.000			-21.994			-3.142
68604.000			-21.992			-3.142
68705.000			-21.991			-3.142
