# Acquired on 10/01/2024 11:23:20 
# SPIDER: Creep_3mm_07714532B-2
# CREEP MEASUREMENT

# time [ms]		force [N]		stiffness [N/mm]
0.000			-7.800			-2.600
100.000			-8.856			-2.952
201.000			-9.325			-3.108
301.000			-9.389			-3.130
401.000			-9.296			-3.099
501.000			-9.263			-3.088
600.000			-9.237			-3.079
700.000			-9.213			-3.071
801.000			-9.192			-3.064
900.000			-9.174			-3.058
1002.000			-9.157			-3.052
1101.000			-9.129			-3.043
1200.000			-9.116			-3.039
1301.000			-9.104			-3.035
1400.000			-9.093			-3.031
1500.000			-9.085			-3.028
1601.000			-9.074			-3.025
1700.000			-9.064			-3.021
1801.000			-9.057			-3.019
1902.000			-9.040			-3.013
2000.000			-9.033			-3.011
2100.000			-9.025			-3.008
2201.000			-9.019			-3.006
2300.000			-9.012			-3.004
2400.000			-9.006			-3.002
2502.000			-9.000			-3.000
2601.000			-8.988			-2.996
2700.000			-8.983			-2.994
2801.000			-8.977			-2.992
2900.000			-8.972			-2.991
3000.000			-8.967			-2.989
3101.000			-8.962			-2.987
3200.000			-8.958			-2.986
3301.000			-8.949			-2.983
3402.000			-8.945			-2.982
3500.000			-8.940			-2.980
3600.000			-8.936			-2.979
3701.000			-8.933			-2.978
3800.000			-8.929			-2.976
3900.000			-8.925			-2.975
4001.000			-8.918			-2.973
4101.000			-8.913			-2.971
4202.000			-8.909			-2.970
4300.000			-8.907			-2.969
4400.000			-8.903			-2.968
4501.000			-8.900			-2.967
4600.000			-8.897			-2.966
4700.000			-8.895			-2.965
4802.000			-8.888			-2.963
4901.000			-8.885			-2.962
5000.000			-8.882			-2.961
5101.000			-8.880			-2.960
5200.000			-8.877			-2.959
5300.000			-8.874			-2.958
5401.000			-8.872			-2.957
5500.000			-8.866			-2.955
5601.000			-8.864			-2.955
5702.000			-8.861			-2.954
5800.000			-8.859			-2.953
5900.000			-8.856			-2.952
6001.000			-8.854			-2.951
6100.000			-8.851			-2.950
6200.000			-8.847			-2.949
6301.000			-8.845			-2.948
6401.000			-8.843			-2.948
6501.000			-8.840			-2.947
6601.000			-8.837			-2.946
6700.000			-8.834			-2.945
6800.000			-8.832			-2.944
6901.000			-8.829			-2.943
7000.000			-8.828			-2.943
7100.000			-8.827			-2.942
7202.000			-8.824			-2.941
7301.000			-8.821			-2.940
7400.000			-8.820			-2.940
7500.000			-8.817			-2.939
7600.000			-8.815			-2.938
7701.000			-8.812			-2.937
7800.000			-8.811			-2.937
7900.000			-8.808			-2.936
8002.000			-8.807			-2.936
8101.000			-8.805			-2.935
8200.000			-8.803			-2.934
8301.000			-8.801			-2.934
8400.000			-8.797			-2.932
8500.000			-8.794			-2.931
8601.000			-8.794			-2.931
8701.000			-8.792			-2.931
8801.000			-8.790			-2.930
8901.000			-8.789			-2.930
9000.000			-8.788			-2.929
9100.000			-8.784			-2.928
9201.000			-8.784			-2.928
9300.000			-8.782			-2.927
9400.000			-8.780			-2.927
9502.000			-8.778			-2.926
9601.000			-8.776			-2.925
9700.000			-8.774			-2.925
9801.000			-8.773			-2.924
9900.000			-8.772			-2.924
10000.000			-8.770			-2.923
10101.000			-8.769			-2.923
10200.000			-8.766			-2.922
10301.000			-8.765			-2.922
10402.000			-8.763			-2.921
10500.000			-8.762			-2.921
10600.000			-8.760			-2.920
10700.000			-8.758			-2.919
10800.000			-8.757			-2.919
10901.000			-8.755			-2.918
11000.000			-8.755			-2.918
11101.000			-8.754			-2.918
11202.000			-8.753			-2.918
11300.000			-8.750			-2.917
11400.000			-8.749			-2.916
11501.000			-8.748			-2.916
11600.000			-8.748			-2.916
11700.000			-8.747			-2.916
11801.000			-8.744			-2.915
11901.000			-8.742			-2.914
12001.000			-8.740			-2.913
12101.000			-8.740			-2.913
12200.000			-8.739			-2.913
12300.000			-8.738			-2.913
12401.000			-8.737			-2.912
12500.000			-8.736			-2.912
12600.000			-8.734			-2.911
12702.000			-8.732			-2.911
12801.000			-8.730			-2.910
12900.000			-8.730			-2.910
13001.000			-8.729			-2.910
13100.000			-8.728			-2.909
13200.000			-8.727			-2.909
13301.000			-8.726			-2.909
13401.000			-8.724			-2.908
13501.000			-8.721			-2.907
13602.000			-8.722			-2.907
13700.000			-8.721			-2.907
13800.000			-8.720			-2.907
13900.000			-8.719			-2.906
14000.000			-8.718			-2.906
14101.000			-8.717			-2.906
14201.000			-8.714			-2.905
14301.000			-8.714			-2.905
14402.000			-8.713			-2.904
14500.000			-8.712			-2.904
14600.000			-8.711			-2.904
14701.000			-8.710			-2.903
14800.000			-8.709			-2.903
14900.000			-8.706			-2.902
15002.000			-8.706			-2.902
15101.000			-8.706			-2.902
15200.000			-8.705			-2.902
15301.000			-8.703			-2.901
15400.000			-8.702			-2.901
15500.000			-8.702			-2.901
15601.000			-8.701			-2.900
15700.000			-8.699			-2.900
15801.000			-8.699			-2.900
15902.000			-8.697			-2.899
16001.000			-8.696			-2.899
16100.000			-8.694			-2.898
16201.000			-8.694			-2.898
16300.000			-8.694			-2.898
16400.000			-8.692			-2.897
16501.000			-8.692			-2.897
16601.000			-8.690			-2.897
16701.000			-8.690			-2.897
16802.000			-8.689			-2.896
16900.000			-8.688			-2.896
17000.000			-8.687			-2.896
17100.000			-8.686			-2.895
17200.000			-8.685			-2.895
17301.000			-8.684			-2.895
17400.000			-8.683			-2.894
17501.000			-8.682			-2.894
17602.000			-8.682			-2.894
17700.000			-8.681			-2.894
17800.000			-8.679			-2.893
17901.000			-8.679			-2.893
18000.000			-8.678			-2.893
18100.000			-8.677			-2.892
18201.000			-8.677			-2.892
18301.000			-8.677			-2.892
18401.000			-8.676			-2.892
18501.000			-8.675			-2.892
18600.000			-8.673			-2.891
18700.000			-8.672			-2.891
18801.000			-8.671			-2.890
18900.000			-8.671			-2.890
19000.000			-8.671			-2.890
19102.000			-8.670			-2.890
19201.000			-8.668			-2.889
19300.000			-8.667			-2.889
19401.000			-8.666			-2.889
19500.000			-8.665			-2.888
19600.000			-8.663			-2.888
19701.000			-8.663			-2.888
19800.000			-8.663			-2.888
19901.000			-8.663			-2.888
20002.000			-8.660			-2.887
20100.000			-8.660			-2.887
20200.000			-8.660			-2.887
20300.000			-8.659			-2.886
20400.000			-8.658			-2.886
20501.000			-8.658			-2.886
20600.000			-8.658			-2.886
20701.000			-8.656			-2.885
20802.000			-8.655			-2.885
20900.000			-8.654			-2.885
21000.000			-8.653			-2.884
21101.000			-8.652			-2.884
21200.000			-8.651			-2.884
21300.000			-8.650			-2.883
21401.000			-8.649			-2.883
21501.000			-8.648			-2.883
21601.000			-8.648			-2.883
21701.000			-8.648			-2.883
21800.000			-8.647			-2.882
21900.000			-8.647			-2.882
22001.000			-8.645			-2.882
22100.000			-8.645			-2.882
22200.000			-8.644			-2.881
22302.000			-8.643			-2.881
22401.000			-8.642			-2.881
22500.000			-8.642			-2.881
22601.000			-8.641			-2.880
22700.000			-8.640			-2.880
22800.000			-8.639			-2.880
22901.000			-8.639			-2.880
23000.000			-8.638			-2.879
23101.000			-8.637			-2.879
23202.000			-8.636			-2.879
23300.000			-8.635			-2.878
23400.000			-8.635			-2.878
23500.000			-8.635			-2.878
23600.000			-8.634			-2.878
23701.000			-8.635			-2.878
23800.000			-8.633			-2.878
23901.000			-8.632			-2.877
24002.000			-8.631			-2.877
24100.000			-8.631			-2.877
24200.000			-8.630			-2.877
24301.000			-8.630			-2.877
24400.000			-8.628			-2.876
24500.000			-8.627			-2.876
24602.000			-8.627			-2.876
24701.000			-8.627			-2.876
24800.000			-8.625			-2.875
24901.000			-8.624			-2.875
25000.000			-8.625			-2.875
25100.000			-8.625			-2.875
25201.000			-8.624			-2.875
25300.000			-8.625			-2.875
25401.000			-8.624			-2.875
25502.000			-8.623			-2.874
25600.000			-8.622			-2.874
25700.000			-8.622			-2.874
25801.000			-8.621			-2.874
25900.000			-8.621			-2.874
26000.000			-8.619			-2.873
26101.000			-8.620			-2.873
26201.000			-8.619			-2.873
26301.000			-8.618			-2.873
26402.000			-8.618			-2.873
26500.000			-8.618			-2.873
26600.000			-8.616			-2.872
26700.000			-8.616			-2.872
26800.000			-8.615			-2.872
26901.000			-8.614			-2.871
27001.000			-8.614			-2.871
27101.000			-8.614			-2.871
27202.000			-8.613			-2.871
27300.000			-8.612			-2.871
27400.000			-8.611			-2.870
27501.000			-8.611			-2.870
27600.000			-8.611			-2.870
27700.000			-8.610			-2.870
27802.000			-8.610			-2.870
27901.000			-8.609			-2.870
28000.000			-8.608			-2.869
28101.000			-8.606			-2.869
28200.000			-8.607			-2.869
28300.000			-8.608			-2.869
28401.000			-8.606			-2.869
28500.000			-8.605			-2.868
28601.000			-8.605			-2.868
28702.000			-8.605			-2.868
28800.000			-8.604			-2.868
28900.000			-8.603			-2.868
29001.000			-8.602			-2.867
29100.000			-8.601			-2.867
29200.000			-8.601			-2.867
29301.000			-8.600			-2.867
29401.000			-8.600			-2.867
29501.000			-8.599			-2.866
29601.000			-8.599			-2.866
29700.000			-8.599			-2.866
29800.000			-8.599			-2.866
29900.000			-8.597			-2.866
30000.000			-8.596			-2.865
30101.000			-8.597			-2.866
30201.000			-8.597			-2.866
30301.000			-8.596			-2.865
30402.000			-8.594			-2.865
30500.000			-8.594			-2.865
30600.000			-8.595			-2.865
30701.000			-8.594			-2.865
30800.000			-8.593			-2.864
30900.000			-8.592			-2.864
31002.000			-8.592			-2.864
31101.000			-8.591			-2.864
31201.000			-8.591			-2.864
31301.000			-8.590			-2.863
31400.000			-8.590			-2.863
31500.000			-8.589			-2.863
31601.000			-8.588			-2.863
31700.000			-8.589			-2.863
31800.000			-8.588			-2.863
31902.000			-8.587			-2.862
32001.000			-8.587			-2.862
32100.000			-8.587			-2.862
32201.000			-8.587			-2.862
32300.000			-8.586			-2.862
32400.000			-8.584			-2.861
32501.000			-8.583			-2.861
32601.000			-8.584			-2.861
32701.000			-8.584			-2.861
32802.000			-8.583			-2.861
32900.000			-8.583			-2.861
33000.000			-8.583			-2.861
33100.000			-8.581			-2.860
33200.000			-8.581			-2.860
33301.000			-8.581			-2.860
33401.000			-8.580			-2.860
33501.000			-8.580			-2.860
33602.000			-8.579			-2.860
33700.000			-8.579			-2.860
33800.000			-8.579			-2.860
33901.000			-8.578			-2.859
34000.000			-8.577			-2.859
34100.000			-8.577			-2.859
34201.000			-8.577			-2.859
34301.000			-8.577			-2.859
34401.000			-8.576			-2.859
34501.000			-8.576			-2.859
34600.000			-8.575			-2.858
34700.000			-8.575			-2.858
34801.000			-8.575			-2.858
34900.000			-8.574			-2.858
35000.000			-8.574			-2.858
35102.000			-8.574			-2.858
35201.000			-8.572			-2.857
35300.000			-8.572			-2.857
35401.000			-8.572			-2.857
35500.000			-8.571			-2.857
35600.000			-8.571			-2.857
35701.000			-8.570			-2.857
35801.000			-8.569			-2.856
35901.000			-8.570			-2.857
36001.000			-8.569			-2.856
36100.000			-8.568			-2.856
36200.000			-8.568			-2.856
36300.000			-8.568			-2.856
36400.000			-8.567			-2.856
36501.000			-8.567			-2.856
36601.000			-8.567			-2.856
36701.000			-8.565			-2.855
36802.000			-8.566			-2.855
36900.000			-8.565			-2.855
37000.000			-8.564			-2.855
37101.000			-8.563			-2.854
37200.000			-8.563			-2.854
37300.000			-8.563			-2.854
37402.000			-8.562			-2.854
37501.000			-8.561			-2.854
37601.000			-8.561			-2.854
37701.000			-8.561			-2.854
37800.000			-8.560			-2.853
37900.000			-8.559			-2.853
38001.000			-8.560			-2.853
38100.000			-8.559			-2.853
38200.000			-8.560			-2.853
38302.000			-8.559			-2.853
38401.000			-8.559			-2.853
38500.000			-8.558			-2.853
38601.000			-8.557			-2.852
38700.000			-8.556			-2.852
38800.000			-8.556			-2.852
38901.000			-8.556			-2.852
39000.000			-8.556			-2.852
39101.000			-8.555			-2.852
39202.000			-8.554			-2.851
39300.000			-8.553			-2.851
39400.000			-8.553			-2.851
39500.000			-8.554			-2.851
39600.000			-8.554			-2.851
39701.000			-8.553			-2.851
39800.000			-8.552			-2.851
39901.000			-8.551			-2.850
40002.000			-8.552			-2.851
40100.000			-8.552			-2.851
40200.000			-8.551			-2.850
40301.000			-8.551			-2.850
40400.000			-8.550			-2.850
40500.000			-8.550			-2.850
40601.000			-8.549			-2.850
40701.000			-8.549			-2.850
40801.000			-8.549			-2.850
40901.000			-8.549			-2.850
41000.000			-8.548			-2.849
41100.000			-8.548			-2.849
41201.000			-8.547			-2.849
41300.000			-8.547			-2.849
41400.000			-8.546			-2.849
41502.000			-8.546			-2.849
41601.000			-8.546			-2.849
41700.000			-8.546			-2.849
41801.000			-8.545			-2.848
41900.000			-8.544			-2.848
42000.000			-8.543			-2.848
42101.000			-8.543			-2.848
42201.000			-8.543			-2.848
42301.000			-8.543			-2.848
42401.000			-8.542			-2.847
42500.000			-8.542			-2.847
42600.000			-8.542			-2.847
42700.000			-8.542			-2.847
42800.000			-8.541			-2.847
42901.000			-8.540			-2.847
43001.000			-8.539			-2.846
43101.000			-8.540			-2.847
43201.000			-8.541			-2.847
43300.000			-8.540			-2.847
43400.000			-8.538			-2.846
43501.000			-8.538			-2.846
43600.000			-8.538			-2.846
43700.000			-8.538			-2.846
43802.000			-8.538			-2.846
43901.000			-8.537			-2.846
44001.000			-8.537			-2.846
44101.000			-8.536			-2.845
44200.000			-8.535			-2.845
44300.000			-8.535			-2.845
44401.000			-8.535			-2.845
44500.000			-8.534			-2.845
44601.000			-8.534			-2.845
44702.000			-8.534			-2.845
44800.000			-8.534			-2.845
44900.000			-8.533			-2.844
45001.000			-8.533			-2.844
45100.000			-8.533			-2.844
45200.000			-8.532			-2.844
45301.000			-8.532			-2.844
45401.000			-8.532			-2.844
45501.000			-8.532			-2.844
45601.000			-8.531			-2.844
45700.000			-8.530			-2.843
45800.000			-8.530			-2.843
45900.000			-8.529			-2.843
46000.000			-8.530			-2.843
46101.000			-8.530			-2.843
46201.000			-8.528			-2.843
46301.000			-8.527			-2.842
46401.000			-8.527			-2.842
46500.000			-8.527			-2.842
46600.000			-8.528			-2.843
46701.000			-8.526			-2.842
46800.000			-8.526			-2.842
46900.000			-8.526			-2.842
47002.000			-8.526			-2.842
47101.000			-8.525			-2.842
47200.000			-8.523			-2.841
47301.000			-8.524			-2.841
47400.000			-8.524			-2.841
47500.000			-8.524			-2.841
47601.000			-8.521			-2.840
47700.000			-8.521			-2.840
47801.000			-8.521			-2.840
47902.000			-8.521			-2.840
48000.000			-8.521			-2.840
48100.000			-8.521			-2.840
48201.000			-8.521			-2.840
48300.000			-8.520			-2.840
48400.000			-8.519			-2.840
48501.000			-8.518			-2.839
48601.000			-8.519			-2.840
48701.000			-8.518			-2.839
48801.000			-8.518			-2.839
48900.000			-8.518			-2.839
49000.000			-8.518			-2.839
49100.000			-8.516			-2.839
49200.000			-8.516			-2.839
49301.000			-8.515			-2.838
49401.000			-8.515			-2.838
49501.000			-8.515			-2.838
49601.000			-8.514			-2.838
49700.000			-8.514			-2.838
49800.000			-8.514			-2.838
49901.000			-8.514			-2.838
50000.000			-8.513			-2.838
50100.000			-8.513			-2.838
50202.000			-8.513			-2.838
50301.000			-8.511			-2.837
50400.000			-8.511			-2.837
50501.000			-8.511			-2.837
50600.000			-8.511			-2.837
50700.000			-8.511			-2.837
50801.000			-8.510			-2.837
50901.000			-8.510			-2.837
51001.000			-8.510			-2.837
51102.000			-8.510			-2.837
51200.000			-8.509			-2.836
51300.000			-8.508			-2.836
51401.000			-8.507			-2.836
51500.000			-8.507			-2.836
51600.000			-8.507			-2.836
51702.000			-8.506			-2.835
51801.000			-8.506			-2.835
51901.000			-8.506			-2.835
52001.000			-8.506			-2.835
52100.000			-8.505			-2.835
52200.000			-8.505			-2.835
52300.000			-8.505			-2.835
52400.000			-8.506			-2.835
52502.000			-8.505			-2.835
52601.000			-8.504			-2.835
52700.000			-8.504			-2.835
52801.000			-8.504			-2.835
52900.000			-8.503			-2.834
53000.000			-8.503			-2.834
53101.000			-8.502			-2.834
53200.000			-8.502			-2.834
53301.000			-8.503			-2.834
53402.000			-8.501			-2.834
53500.000			-8.502			-2.834
53600.000			-8.501			-2.834
53701.000			-8.501			-2.834
53800.000			-8.501			-2.834
53900.000			-8.501			-2.834
54001.000			-8.500			-2.833
54101.000			-8.500			-2.833
54201.000			-8.499			-2.833
54301.000			-8.500			-2.833
54400.000			-8.500			-2.833
54500.000			-8.499			-2.833
54601.000			-8.498			-2.833
54700.000			-8.498			-2.833
54801.000			-8.499			-2.833
54902.000			-8.498			-2.833
55001.000			-8.498			-2.833
55100.000			-8.497			-2.832
55201.000			-8.497			-2.832
55300.000			-8.497			-2.832
55400.000			-8.497			-2.832
55500.000			-8.496			-2.832
55600.000			-8.496			-2.832
55702.000			-8.496			-2.832
55801.000			-8.496			-2.832
55900.000			-8.495			-2.832
56001.000			-8.495			-2.832
56100.000			-8.494			-2.831
56200.000			-8.494			-2.831
56301.000			-8.494			-2.831
56400.000			-8.493			-2.831
56501.000			-8.493			-2.831
56602.000			-8.493			-2.831
56700.000			-8.494			-2.831
56800.000			-8.493			-2.831
56901.000			-8.493			-2.831
57000.000			-8.492			-2.831
57100.000			-8.493			-2.831
57201.000			-8.492			-2.831
57301.000			-8.492			-2.831
57401.000			-8.492			-2.831
57501.000			-8.492			-2.831
57600.000			-8.491			-2.830
57700.000			-8.490			-2.830
57801.000			-8.490			-2.830
57900.000			-8.488			-2.829
58000.000			-8.489			-2.830
58102.000			-8.490			-2.830
58201.000			-8.490			-2.830
58300.000			-8.489			-2.830
58401.000			-8.489			-2.830
58500.000			-8.488			-2.829
58600.000			-8.488			-2.829
58700.000			-8.489			-2.830
58800.000			-8.487			-2.829
58902.000			-8.487			-2.829
59001.000			-8.488			-2.829
59101.000			-8.488			-2.829
59201.000			-8.488			-2.829
59300.000			-8.486			-2.829
59400.000			-8.486			-2.829
59501.000			-8.486			-2.829
59600.000			-8.486			-2.829
59700.000			-8.486			-2.829
59802.000			-8.486			-2.829
59901.000			-8.485			-2.828
60000.000			-8.484			-2.828
60101.000			-8.485			-2.828
60200.000			-8.485			-2.828
60300.000			-8.483			-2.828
60401.000			-8.484			-2.828
60500.000			-8.483			-2.828
60601.000			-8.483			-2.828
60702.000			-8.484			-2.828
60800.000			-8.483			-2.828
60900.000			-8.483			-2.828
61001.000			-8.483			-2.828
61100.000			-8.482			-2.827
61200.000			-8.481			-2.827
61301.000			-8.482			-2.827
61401.000			-8.482			-2.827
61501.000			-8.481			-2.827
61601.000			-8.481			-2.827
61700.000			-8.481			-2.827
61800.000			-8.480			-2.827
61900.000			-8.479			-2.826
62000.000			-8.479			-2.826
62101.000			-8.480			-2.827
62201.000			-8.478			-2.826
62301.000			-8.478			-2.826
62401.000			-8.478			-2.826
62500.000			-8.478			-2.826
62600.000			-8.477			-2.826
62701.000			-8.478			-2.826
62800.000			-8.477			-2.826
62900.000			-8.477			-2.826
63002.000			-8.477			-2.826
63101.000			-8.476			-2.825
63200.000			-8.476			-2.825
63301.000			-8.476			-2.825
63400.000			-8.475			-2.825
63500.000			-8.476			-2.825
63601.000			-8.476			-2.825
63700.000			-8.475			-2.825
63801.000			-8.475			-2.825
63902.000			-8.476			-2.825
64000.000			-8.476			-2.825
64100.000			-8.475			-2.825
64201.000			-8.474			-2.825
64300.000			-8.473			-2.824
64400.000			-8.473			-2.824
64501.000			-8.473			-2.824
64601.000			-8.474			-2.825
64701.000			-8.474			-2.825
64801.000			-8.473			-2.824
64900.000			-8.472			-2.824
65000.000			-8.473			-2.824
65100.000			-8.472			-2.824
65200.000			-8.471			-2.824
65301.000			-8.471			-2.824
65401.000			-8.472			-2.824
65501.000			-8.471			-2.824
65601.000			-8.470			-2.823
65700.000			-8.470			-2.823
65800.000			-8.471			-2.824
65901.000			-8.470			-2.823
66000.000			-8.470			-2.823
66100.000			-8.469			-2.823
66202.000			-8.469			-2.823
66301.000			-8.470			-2.823
66400.000			-8.469			-2.823
66501.000			-8.469			-2.823
66600.000			-8.470			-2.823
66700.000			-8.469			-2.823
66801.000			-8.469			-2.823
66900.000			-8.469			-2.823
67001.000			-8.468			-2.823
67102.000			-8.468			-2.823
67201.000			-8.467			-2.822
67300.000			-8.467			-2.822
67401.000			-8.467			-2.822
67500.000			-8.466			-2.822
67600.000			-8.467			-2.822
67701.000			-8.466			-2.822
67800.000			-8.466			-2.822
67901.000			-8.465			-2.822
68002.000			-8.466			-2.822
68100.000			-8.466			-2.822
68200.000			-8.466			-2.822
68300.000			-8.466			-2.822
68400.000			-8.465			-2.822
68501.000			-8.465			-2.822
68600.000			-8.465			-2.822
68701.000			-8.464			-2.821
68802.000			-8.463			-2.821
68900.000			-8.464			-2.821
69000.000			-8.464			-2.821
69101.000			-8.463			-2.821
69200.000			-8.462			-2.821
69300.000			-8.462			-2.821
69401.000			-8.463			-2.821
69501.000			-8.462			-2.821
69601.000			-8.461			-2.820
69702.000			-8.460			-2.820
69800.000			-8.460			-2.820
69900.000			-8.461			-2.820
70001.000			-8.461			-2.820
70100.000			-8.460			-2.820
70200.000			-8.460			-2.820
70301.000			-8.459			-2.820
70401.000			-8.459			-2.820
70501.000			-8.460			-2.820
70601.000			-8.459			-2.820
70700.000			-8.459			-2.820
70800.000			-8.459			-2.820
70901.000			-8.458			-2.819
71000.000			-8.459			-2.820
71100.000			-8.458			-2.819
71202.000			-8.457			-2.819
