# Acquired on 26/01/2024 14:14:34 
# SPIDER: Creep_-8mm_GRPCNT1454A-3
# CREEP MEASUREMENT

# time [ms]		force [N]		stiffness [N/mm]
1.000			35.715			-4.464
104.000			36.523			-4.565
203.000			36.348			-4.544
305.000			36.065			-4.508
404.000			35.852			-4.482
504.000			35.676			-4.459
605.000			35.524			-4.441
703.000			35.390			-4.424
804.000			35.271			-4.409
905.000			35.165			-4.396
1004.000			34.979			-4.372
1104.000			34.896			-4.362
1204.000			34.820			-4.352
1304.000			34.748			-4.343
1404.000			34.681			-4.335
1504.000			34.619			-4.327
1604.000			34.560			-4.320
1705.000			34.450			-4.306
1804.000			34.400			-4.300
1903.000			34.352			-4.294
2005.000			34.305			-4.288
2104.000			34.260			-4.283
2204.000			34.217			-4.277
2305.000			34.176			-4.272
2404.000			34.101			-4.263
2504.000			34.064			-4.258
2604.000			34.029			-4.254
2704.000			33.996			-4.250
2804.000			33.963			-4.245
2905.000			33.931			-4.241
3004.000			33.900			-4.238
3103.000			33.840			-4.230
3205.000			33.813			-4.227
3304.000			33.785			-4.223
3404.000			33.758			-4.220
3505.000			33.732			-4.217
3604.000			33.706			-4.213
3704.000			33.681			-4.210
3804.000			33.658			-4.207
3904.000			33.610			-4.201
4004.000			33.588			-4.199
4105.000			33.566			-4.196
4204.000			33.544			-4.193
4303.000			33.523			-4.190
4405.000			33.503			-4.188
4504.000			33.482			-4.185
4604.000			33.444			-4.181
4705.000			33.425			-4.178
4804.000			33.405			-4.176
4905.000			33.388			-4.173
5003.000			33.369			-4.171
5104.000			33.352			-4.169
5205.000			33.335			-4.167
5304.000			33.300			-4.163
5404.000			33.283			-4.160
5504.000			33.267			-4.158
5604.000			33.252			-4.157
5704.000			33.237			-4.155
5805.000			33.222			-4.153
5904.000			33.206			-4.151
6004.000			33.177			-4.147
6105.000			33.162			-4.145
6203.000			33.148			-4.143
6304.000			33.133			-4.142
6405.000			33.120			-4.140
6504.000			33.106			-4.138
6604.000			33.092			-4.136
6705.000			33.079			-4.135
6804.000			33.052			-4.132
6903.000			33.039			-4.130
7005.000			33.028			-4.128
7104.000			33.016			-4.127
7204.000			33.003			-4.125
7305.000			32.990			-4.124
7404.000			32.978			-4.122
7504.000			32.955			-4.119
7604.000			32.944			-4.118
7704.000			32.932			-4.117
7804.000			32.919			-4.115
7904.000			32.908			-4.114
8004.000			32.899			-4.112
8103.000			32.889			-4.111
8204.000			32.865			-4.108
8304.000			32.855			-4.107
8405.000			32.844			-4.106
8504.000			32.834			-4.104
8604.000			32.824			-4.103
8705.000			32.815			-4.102
8803.000			32.804			-4.100
8904.000			32.784			-4.098
9005.000			32.774			-4.097
9104.000			32.765			-4.096
9204.000			32.756			-4.094
9305.000			32.745			-4.093
9404.000			32.736			-4.092
9503.000			32.727			-4.091
9605.000			32.718			-4.090
9704.000			32.700			-4.087
9804.000			32.690			-4.086
9905.000			32.681			-4.085
10003.000			32.672			-4.084
10104.000			32.664			-4.083
10205.000			32.657			-4.082
10304.000			32.648			-4.081
10404.000			32.631			-4.079
10505.000			32.623			-4.078
10604.000			32.615			-4.077
10703.000			32.607			-4.076
10805.000			32.600			-4.075
10904.000			32.592			-4.074
11004.000			32.584			-4.073
11105.000			32.567			-4.071
11204.000			32.559			-4.070
11305.000			32.551			-4.069
11403.000			32.544			-4.068
11504.000			32.537			-4.067
11605.000			32.528			-4.066
11704.000			32.521			-4.065
11804.000			32.513			-4.064
11905.000			32.499			-4.062
12004.000			32.492			-4.061
12103.000			32.486			-4.061
12205.000			32.479			-4.060
12304.000			32.471			-4.059
12404.000			32.464			-4.058
12505.000			32.458			-4.057
12604.000			32.444			-4.056
12704.000			32.438			-4.055
12804.000			32.431			-4.054
12904.000			32.424			-4.053
13004.000			32.417			-4.052
13105.000			32.410			-4.051
13204.000			32.404			-4.051
13303.000			32.390			-4.049
13405.000			32.385			-4.048
13504.000			32.379			-4.047
13604.000			32.372			-4.047
13705.000			32.366			-4.046
13804.000			32.360			-4.045
13904.000			32.353			-4.044
14004.000			32.342			-4.043
14104.000			32.335			-4.042
14204.000			32.329			-4.041
14304.000			32.323			-4.040
14404.000			32.317			-4.040
14505.000			32.311			-4.039
14604.000			32.306			-4.038
14703.000			32.299			-4.037
14805.000			32.287			-4.036
14904.000			32.281			-4.035
15004.000			32.276			-4.034
15105.000			32.270			-4.034
15204.000			32.264			-4.033
15304.000			32.259			-4.032
15405.000			32.253			-4.032
15504.000			32.243			-4.030
15604.000			32.236			-4.030
15705.000			32.231			-4.029
15804.000			32.226			-4.028
15903.000			32.220			-4.027
16005.000			32.214			-4.027
16104.000			32.209			-4.026
16204.000			32.199			-4.025
16305.000			32.195			-4.024
16404.000			32.190			-4.024
16504.000			32.184			-4.023
16604.000			32.178			-4.022
16704.000			32.173			-4.022
16804.000			32.168			-4.021
16905.000			32.159			-4.020
17004.000			32.153			-4.019
17104.000			32.148			-4.019
17205.000			32.144			-4.018
17303.000			32.140			-4.017
17404.000			32.134			-4.017
17505.000			32.128			-4.016
17604.000			32.123			-4.015
17705.000			32.115			-4.014
17804.000			32.110			-4.014
17904.000			32.105			-4.013
18004.000			32.100			-4.013
18104.000			32.095			-4.012
18204.000			32.091			-4.011
18305.000			32.086			-4.011
18404.000			32.076			-4.009
18503.000			32.071			-4.009
18605.000			32.067			-4.008
18704.000			32.062			-4.008
18804.000			32.058			-4.007
18905.000			32.054			-4.007
19004.000			32.048			-4.006
19104.000			32.041			-4.005
19204.000			32.037			-4.005
19304.000			32.032			-4.004
19404.000			32.027			-4.003
19505.000			32.022			-4.003
19604.000			32.017			-4.002
19704.000			32.014			-4.002
19805.000			32.006			-4.001
19903.000			32.002			-4.000
20004.000			31.997			-4.000
20105.000			31.992			-3.999
20204.000			31.988			-3.998
20304.000			31.983			-3.998
20404.000			31.979			-3.997
20504.000			31.976			-3.997
20603.000			31.968			-3.996
20705.000			31.964			-3.995
20804.000			31.959			-3.995
20905.000			31.955			-3.994
21004.000			31.952			-3.994
21103.000			31.948			-3.994
21205.000			31.944			-3.993
21304.000			31.936			-3.992
21404.000			31.932			-3.992
21505.000			31.928			-3.991
21604.000			31.924			-3.991
21704.000			31.920			-3.990
21804.000			31.916			-3.990
21904.000			31.913			-3.989
22004.000			31.904			-3.988
22105.000			31.901			-3.988
22204.000			31.897			-3.987
22304.000			31.892			-3.987
22405.000			31.889			-3.986
22503.000			31.886			-3.986
22604.000			31.883			-3.985
22705.000			31.874			-3.984
22804.000			31.871			-3.984
22904.000			31.867			-3.983
23005.000			31.863			-3.983
23104.000			31.859			-3.982
23203.000			31.855			-3.982
23305.000			31.852			-3.981
23404.000			31.850			-3.981
23504.000			31.842			-3.980
23605.000			31.839			-3.980
23704.000			31.835			-3.979
23804.000			31.831			-3.979
23903.000			31.828			-3.978
24004.000			31.824			-3.978
24105.000			31.820			-3.978
24204.000			31.813			-3.977
24304.000			31.809			-3.976
24404.000			31.807			-3.976
24504.000			31.803			-3.975
24604.000			31.799			-3.975
24705.000			31.796			-3.975
24804.000			31.793			-3.974
24904.000			31.786			-3.973
25005.000			31.783			-3.973
25103.000			31.779			-3.972
25204.000			31.775			-3.972
25305.000			31.772			-3.971
25404.000			31.768			-3.971
25504.000			31.766			-3.971
25605.000			31.759			-3.970
25704.000			31.755			-3.969
25803.000			31.753			-3.969
25905.000			31.750			-3.969
26004.000			31.746			-3.968
26104.000			31.743			-3.968
26205.000			31.740			-3.968
26304.000			31.737			-3.967
26404.000			31.730			-3.966
26504.000			31.726			-3.966
26604.000			31.723			-3.965
26704.000			31.720			-3.965
26805.000			31.718			-3.965
26904.000			31.715			-3.964
27004.000			31.712			-3.964
27105.000			31.705			-3.963
27203.000			31.701			-3.963
27305.000			31.698			-3.962
27404.000			31.695			-3.962
27504.000			31.693			-3.962
27605.000			31.690			-3.961
27704.000			31.687			-3.961
27804.000			31.681			-3.960
27904.000			31.678			-3.960
28004.000			31.674			-3.959
28104.000			31.671			-3.959
28205.000			31.668			-3.958
28304.000			31.665			-3.958
28404.000			31.662			-3.958
28505.000			31.656			-3.957
28603.000			31.654			-3.957
28704.000			31.651			-3.956
28805.000			31.647			-3.956
28904.000			31.644			-3.956
29004.000			31.642			-3.955
29104.000			31.639			-3.955
29204.000			31.636			-3.955
29304.000			31.631			-3.954
29405.000			31.628			-3.954
29504.000			31.624			-3.953
29604.000			31.622			-3.953
29705.000			31.619			-3.952
29803.000			31.616			-3.952
29904.000			31.612			-3.952
30005.000			31.607			-3.951
30104.000			31.604			-3.951
30204.000			31.601			-3.950
30304.000			31.598			-3.950
30404.000			31.595			-3.949
30503.000			31.592			-3.949
30604.000			31.590			-3.949
30704.000			31.584			-3.948
30805.000			31.582			-3.948
30904.000			31.580			-3.947
31004.000			31.578			-3.947
31105.000			31.575			-3.947
31203.000			31.572			-3.947
31304.000			31.570			-3.946
31405.000			31.563			-3.945
31504.000			31.561			-3.945
31604.000			31.558			-3.945
31704.000			31.557			-3.945
31804.000			31.554			-3.944
31903.000			31.552			-3.944
32005.000			31.549			-3.944
32104.000			31.546			-3.943
32204.000			31.541			-3.943
32305.000			31.538			-3.942
32403.000			31.535			-3.942
32504.000			31.533			-3.942
32605.000			31.531			-3.941
32704.000			31.528			-3.941
32804.000			31.525			-3.941
32905.000			31.521			-3.940
33004.000			31.517			-3.940
33103.000			31.515			-3.939
33205.000			31.513			-3.939
33304.000			31.510			-3.939
33404.000			31.508			-3.938
33505.000			31.505			-3.938
33604.000			31.501			-3.938
33705.000			31.498			-3.937
33803.000			31.495			-3.937
33904.000			31.492			-3.937
34005.000			31.491			-3.936
34104.000			31.489			-3.936
34204.000			31.485			-3.936
34304.000			31.481			-3.935
34404.000			31.478			-3.935
34503.000			31.476			-3.935
34605.000			31.474			-3.934
34704.000			31.470			-3.934
34804.000			31.468			-3.934
34905.000			31.467			-3.933
35003.000			31.464			-3.933
35104.000			31.460			-3.933
35205.000			31.458			-3.932
35304.000			31.456			-3.932
35404.000			31.453			-3.932
35505.000			31.450			-3.931
35604.000			31.447			-3.931
35703.000			31.445			-3.931
35805.000			31.440			-3.930
35904.000			31.438			-3.930
36004.000			31.436			-3.930
36105.000			31.434			-3.929
36204.000			31.432			-3.929
36304.000			31.430			-3.929
36404.000			31.427			-3.928
36504.000			31.422			-3.928
36604.000			31.419			-3.927
36704.000			31.417			-3.927
36804.000			31.414			-3.927
36905.000			31.413			-3.927
37004.000			31.411			-3.926
37103.000			31.409			-3.926
37205.000			31.406			-3.926
37304.000			31.402			-3.925
37404.000			31.399			-3.925
37505.000			31.397			-3.925
37604.000			31.396			-3.925
37704.000			31.395			-3.924
37804.000			31.392			-3.924
37904.000			31.390			-3.924
38004.000			31.385			-3.923
38105.000			31.383			-3.923
38204.000			31.380			-3.923
38303.000			31.377			-3.922
38405.000			31.375			-3.922
38504.000			31.374			-3.922
38604.000			31.372			-3.921
38705.000			31.368			-3.921
38804.000			31.365			-3.921
38904.000			31.362			-3.920
39004.000			31.360			-3.920
39104.000			31.357			-3.920
39204.000			31.356			-3.920
39305.000			31.354			-3.919
39404.000			31.349			-3.919
39504.000			31.347			-3.918
39605.000			31.345			-3.918
39703.000			31.344			-3.918
39804.000			31.342			-3.918
39905.000			31.339			-3.917
40004.000			31.338			-3.917
40105.000			31.333			-3.917
40204.000			31.330			-3.916
40304.000			31.329			-3.916
40404.000			31.328			-3.916
40504.000			31.325			-3.916
40604.000			31.323			-3.915
40705.000			31.321			-3.915
40804.000			31.320			-3.915
40903.000			31.314			-3.914
41005.000			31.312			-3.914
41104.000			31.309			-3.914
41204.000			31.308			-3.913
41305.000			31.305			-3.913
41404.000			31.304			-3.913
41504.000			31.301			-3.913
41604.000			31.298			-3.912
41704.000			31.296			-3.912
41804.000			31.294			-3.912
41905.000			31.292			-3.911
42004.000			31.290			-3.911
42104.000			31.289			-3.911
42205.000			31.286			-3.911
42303.000			31.282			-3.910
42404.000			31.281			-3.910
42505.000			31.279			-3.910
42604.000			31.275			-3.909
42704.000			31.274			-3.909
42804.000			31.274			-3.909
42904.000			31.271			-3.909
43003.000			31.268			-3.909
43105.000			31.265			-3.908
43204.000			31.264			-3.908
43305.000			31.261			-3.908
43404.000			31.260			-3.907
43503.000			31.257			-3.907
43605.000			31.256			-3.907
43704.000			31.255			-3.907
43804.000			31.251			-3.906
43905.000			31.248			-3.906
44004.000			31.245			-3.906
44104.000			31.243			-3.905
44204.000			31.242			-3.905
44304.000			31.240			-3.905
44404.000			31.238			-3.905
44505.000			31.235			-3.904
44604.000			31.233			-3.904
44704.000			31.231			-3.904
44805.000			31.229			-3.904
44903.000			31.228			-3.904
45004.000			31.226			-3.903
45105.000			31.224			-3.903
45204.000			31.222			-3.903
45304.000			31.220			-3.902
45404.000			31.217			-3.902
45504.000			31.215			-3.902
45604.000			31.213			-3.902
45705.000			31.212			-3.901
45804.000			31.211			-3.901
45904.000			31.208			-3.901
46005.000			31.204			-3.900
46103.000			31.202			-3.900
46204.000			31.200			-3.900
46305.000			31.198			-3.900
46404.000			31.196			-3.899
46505.000			31.195			-3.899
46604.000			31.193			-3.899
46704.000			31.189			-3.899
46804.000			31.187			-3.898
46904.000			31.186			-3.898
47004.000			31.186			-3.898
47105.000			31.184			-3.898
47204.000			31.180			-3.898
47304.000			31.178			-3.897
47405.000			31.176			-3.897
47504.000			31.173			-3.897
47604.000			31.171			-3.896
47705.000			31.171			-3.896
47804.000			31.171			-3.896
47904.000			31.168			-3.896
48004.000			31.165			-3.896
48104.000			31.162			-3.895
48204.000			31.161			-3.895
48305.000			31.159			-3.895
48404.000			31.157			-3.895
48504.000			31.154			-3.894
48605.000			31.151			-3.894
48703.000			31.151			-3.894
48804.000			31.150			-3.894
48905.000			31.147			-3.893
49004.000			31.146			-3.893
49104.000			31.143			-3.893
49205.000			31.142			-3.893
49304.000			31.140			-3.892
49403.000			31.138			-3.892
49505.000			31.136			-3.892
49604.000			31.133			-3.892
49705.000			31.131			-3.891
49804.000			31.129			-3.891
49904.000			31.127			-3.891
50005.000			31.125			-3.891
50103.000			31.124			-3.890
50204.000			31.122			-3.890
50305.000			31.119			-3.890
50404.000			31.118			-3.890
50504.000			31.116			-3.890
50604.000			31.114			-3.889
50704.000			31.112			-3.889
50804.000			31.111			-3.889
50905.000			31.110			-3.889
51004.000			31.107			-3.888
51104.000			31.105			-3.888
51205.000			31.104			-3.888
51303.000			31.102			-3.888
51404.000			31.100			-3.888
51505.000			31.099			-3.887
51604.000			31.098			-3.887
51704.000			31.096			-3.887
51804.000			31.093			-3.887
51904.000			31.090			-3.886
52003.000			31.088			-3.886
52105.000			31.088			-3.886
52204.000			31.087			-3.886
52304.000			31.084			-3.886
52405.000			31.083			-3.885
52503.000			31.080			-3.885
52604.000			31.079			-3.885
52705.000			31.077			-3.885
52804.000			31.075			-3.884
52905.000			31.073			-3.884
53004.000			31.072			-3.884
53104.000			31.071			-3.884
53204.000			31.069			-3.884
53304.000			31.067			-3.883
53404.000			31.065			-3.883
53505.000			31.064			-3.883
53604.000			31.062			-3.883
53704.000			31.060			-3.882
53805.000			31.059			-3.882
53903.000			31.058			-3.882
54004.000			31.056			-3.882
54105.000			31.053			-3.882
54204.000			31.052			-3.881
54304.000			31.051			-3.881
54405.000			31.049			-3.881
54504.000			31.048			-3.881
54603.000			31.045			-3.881
54705.000			31.045			-3.881
54804.000			31.043			-3.880
54904.000			31.039			-3.880
55005.000			31.039			-3.880
55104.000			31.039			-3.880
55204.000			31.037			-3.880
55304.000			31.035			-3.879
55404.000			31.032			-3.879
55504.000			31.030			-3.879
55605.000			31.028			-3.879
55704.000			31.027			-3.878
55803.000			31.025			-3.878
55905.000			31.024			-3.878
56004.000			31.023			-3.878
56105.000			31.019			-3.877
56204.000			31.019			-3.877
56304.000			31.018			-3.877
56405.000			31.016			-3.877
56503.000			31.014			-3.877
56604.000			31.012			-3.877
56705.000			31.011			-3.876
56804.000			31.008			-3.876
56904.000			31.006			-3.876
57005.000			31.004			-3.875
57104.000			31.002			-3.875
57203.000			31.001			-3.875
57305.000			31.000			-3.875
57404.000			30.999			-3.875
57504.000			30.996			-3.874
57605.000			30.994			-3.874
57704.000			30.992			-3.874
57804.000			30.990			-3.874
57904.000			30.989			-3.874
58004.000			30.989			-3.874
58104.000			30.988			-3.873
58205.000			30.986			-3.873
58304.000			30.982			-3.873
58404.000			30.982			-3.873
58505.000			30.980			-3.873
58603.000			30.978			-3.872
58704.000			30.977			-3.872
58805.000			30.976			-3.872
58904.000			30.974			-3.872
59004.000			30.970			-3.871
59104.000			30.970			-3.871
59204.000			30.968			-3.871
59303.000			30.967			-3.871
59404.000			30.966			-3.871
59504.000			30.965			-3.871
59605.000			30.963			-3.870
59704.000			30.960			-3.870
59804.000			30.959			-3.870
59905.000			30.958			-3.870
60003.000			30.957			-3.870
60104.000			30.955			-3.869
60205.000			30.954			-3.869
60304.000			30.954			-3.869
60404.000			30.952			-3.869
60505.000			30.951			-3.869
60604.000			30.948			-3.869
60703.000			30.947			-3.868
60805.000			30.945			-3.868
60904.000			30.944			-3.868
61004.000			30.943			-3.868
61105.000			30.941			-3.868
61204.000			30.939			-3.867
61304.000			30.938			-3.867
61404.000			30.937			-3.867
61504.000			30.935			-3.867
61604.000			30.933			-3.867
61705.000			30.932			-3.866
61804.000			30.931			-3.866
61903.000			30.928			-3.866
62005.000			30.926			-3.866
62104.000			30.924			-3.865
62204.000			30.923			-3.865
62305.000			30.922			-3.865
62404.000			30.922			-3.865
62505.000			30.919			-3.865
62603.000			30.916			-3.864
62704.000			30.914			-3.864
62805.000			30.912			-3.864
62904.000			30.911			-3.864
63004.000			30.909			-3.864
63105.000			30.908			-3.864
63204.000			30.907			-3.863
63303.000			30.904			-3.863
63405.000			30.902			-3.863
63504.000			30.901			-3.863
63604.000			30.900			-3.863
63705.000			30.899			-3.862
63804.000			30.896			-3.862
63904.000			30.894			-3.862
64004.000			30.894			-3.862
64104.000			30.892			-3.862
64204.000			30.891			-3.861
64305.000			30.890			-3.861
64404.000			30.888			-3.861
64504.000			30.885			-3.861
64605.000			30.885			-3.861
64703.000			30.885			-3.861
64804.000			30.882			-3.860
64905.000			30.880			-3.860
65004.000			30.879			-3.860
65104.000			30.877			-3.860
65205.000			30.875			-3.859
65304.000			30.874			-3.859
65403.000			30.873			-3.859
65505.000			30.870			-3.859
65604.000			30.870			-3.859
65705.000			30.869			-3.859
65804.000			30.867			-3.858
65904.000			30.866			-3.858
66005.000			30.864			-3.858
66103.000			30.862			-3.858
66204.000			30.860			-3.858
66305.000			30.858			-3.857
66404.000			30.858			-3.857
66504.000			30.856			-3.857
66605.000			30.855			-3.857
66704.000			30.854			-3.857
66803.000			30.853			-3.857
66905.000			30.852			-3.857
67004.000			30.849			-3.856
67104.000			30.848			-3.856
67205.000			30.847			-3.856
67304.000			30.846			-3.856
67404.000			30.844			-3.856
67504.000			30.843			-3.855
67604.000			30.841			-3.855
67704.000			30.838			-3.855
67805.000			30.837			-3.855
67904.000			30.835			-3.854
68004.000			30.835			-3.854
68105.000			30.834			-3.854
68203.000			30.832			-3.854
68304.000			30.831			-3.854
68405.000			30.829			-3.854
68504.000			30.826			-3.853
68604.000			30.825			-3.853
68704.000			30.825			-3.853
68804.000			30.824			-3.853
68903.000			30.824			-3.853
69004.000			30.821			-3.853
69104.000			30.818			-3.852
69205.000			30.816			-3.852
69304.000			30.816			-3.852
69404.000			30.815			-3.852
69505.000			30.814			-3.852
69603.000			30.813			-3.852
69704.000			30.812			-3.852
69805.000			30.811			-3.851
69904.000			30.809			-3.851
70004.000			30.807			-3.851
70105.000			30.806			-3.851
70204.000			30.806			-3.851
70303.000			30.804			-3.851
70405.000			30.804			-3.850
70504.000			30.802			-3.850
70604.000			30.798			-3.850
70705.000			30.797			-3.850
70804.000			30.796			-3.849
70904.000			30.795			-3.849
71004.000			30.794			-3.849
71104.000			30.793			-3.849
71204.000			30.792			-3.849
