# Acquired on 20/12/2023 11:03:01 
# SPIDER: Creep_3mm_07714532C-2
# CREEP MEASUREMENT

# time [ms]		force [N]		stiffness [N/mm]
0.000			-5.968			-1.989
101.000			-7.129			-2.376
200.000			-7.944			-2.648
300.000			-7.939			-2.646
401.000			-7.916			-2.639
501.000			-7.898			-2.633
601.000			-7.882			-2.627
701.000			-7.870			-2.623
800.000			-7.859			-2.620
900.000			-7.849			-2.616
1001.000			-7.831			-2.610
1100.000			-7.824			-2.608
1201.000			-7.817			-2.606
1302.000			-7.811			-2.604
1400.000			-7.805			-2.602
1500.000			-7.798			-2.599
1601.000			-7.793			-2.598
1700.000			-7.782			-2.594
1800.000			-7.777			-2.592
1900.000			-7.773			-2.591
2001.000			-7.769			-2.590
2102.000			-7.764			-2.588
2200.000			-7.759			-2.586
2300.000			-7.755			-2.585
2401.000			-7.748			-2.583
2500.000			-7.745			-2.582
2600.000			-7.741			-2.580
2701.000			-7.738			-2.579
2801.000			-7.735			-2.578
2901.000			-7.732			-2.577
3001.000			-7.728			-2.576
3100.000			-7.725			-2.575
3200.000			-7.721			-2.574
3301.000			-7.718			-2.573
3400.000			-7.715			-2.572
3501.000			-7.713			-2.571
3602.000			-7.711			-2.570
3700.000			-7.708			-2.569
3800.000			-7.704			-2.568
3901.000			-7.700			-2.567
4000.000			-7.697			-2.566
4100.000			-7.695			-2.565
4201.000			-7.693			-2.564
4301.000			-7.692			-2.564
4401.000			-7.689			-2.563
4501.000			-7.686			-2.562
4600.000			-7.684			-2.561
4700.000			-7.681			-2.560
4801.000			-7.679			-2.560
4900.000			-7.678			-2.559
5000.000			-7.675			-2.558
5102.000			-7.674			-2.558
5201.000			-7.672			-2.557
5301.000			-7.671			-2.557
5400.000			-7.666			-2.555
5500.000			-7.665			-2.555
5601.000			-7.663			-2.554
5700.000			-7.662			-2.554
5800.000			-7.659			-2.553
5902.000			-7.658			-2.553
6001.000			-7.658			-2.553
6100.000			-7.654			-2.551
6201.000			-7.652			-2.551
6300.000			-7.649			-2.550
6400.000			-7.648			-2.549
6501.000			-7.648			-2.549
6601.000			-7.647			-2.549
6701.000			-7.645			-2.548
6801.000			-7.643			-2.548
6900.000			-7.643			-2.548
7000.000			-7.640			-2.547
7101.000			-7.639			-2.546
7200.000			-7.638			-2.546
7300.000			-7.636			-2.545
7402.000			-7.634			-2.545
7501.000			-7.633			-2.544
7600.000			-7.631			-2.544
7701.000			-7.630			-2.543
7800.000			-7.629			-2.543
7900.000			-7.627			-2.542
8001.000			-7.626			-2.542
8100.000			-7.626			-2.542
8202.000			-7.625			-2.542
8301.000			-7.621			-2.540
8400.000			-7.620			-2.540
8501.000			-7.618			-2.539
8600.000			-7.618			-2.539
8700.000			-7.617			-2.539
8801.000			-7.616			-2.539
8900.000			-7.615			-2.538
9001.000			-7.614			-2.538
9102.000			-7.612			-2.537
9200.000			-7.610			-2.537
9300.000			-7.609			-2.536
9401.000			-7.608			-2.536
9500.000			-7.607			-2.536
9600.000			-7.606			-2.535
9702.000			-7.605			-2.535
9801.000			-7.604			-2.535
9900.000			-7.603			-2.534
10001.000			-7.603			-2.534
10100.000			-7.602			-2.534
10200.000			-7.601			-2.534
10301.000			-7.599			-2.533
10400.000			-7.598			-2.533
10501.000			-7.596			-2.532
10602.000			-7.596			-2.532
10700.000			-7.594			-2.531
10800.000			-7.593			-2.531
10901.000			-7.593			-2.531
11000.000			-7.593			-2.531
11100.000			-7.591			-2.530
11201.000			-7.591			-2.530
11301.000			-7.588			-2.529
11402.000			-7.587			-2.529
11500.000			-7.586			-2.529
11600.000			-7.586			-2.529
11701.000			-7.585			-2.528
11800.000			-7.585			-2.528
11900.000			-7.584			-2.528
12001.000			-7.582			-2.527
12101.000			-7.581			-2.527
12201.000			-7.580			-2.527
12301.000			-7.579			-2.526
12400.000			-7.579			-2.526
12500.000			-7.578			-2.526
12601.000			-7.577			-2.526
12700.000			-7.575			-2.525
12800.000			-7.574			-2.525
12902.000			-7.574			-2.525
13001.000			-7.573			-2.524
13100.000			-7.572			-2.524
13201.000			-7.572			-2.524
13300.000			-7.572			-2.524
13400.000			-7.571			-2.524
13501.000			-7.569			-2.523
13600.000			-7.569			-2.523
13701.000			-7.569			-2.523
13802.000			-7.568			-2.523
13900.000			-7.566			-2.522
14000.000			-7.565			-2.522
14101.000			-7.565			-2.522
14200.000			-7.563			-2.521
14300.000			-7.563			-2.521
14401.000			-7.562			-2.521
14501.000			-7.561			-2.520
14602.000			-7.561			-2.520
14700.000			-7.561			-2.520
14800.000			-7.560			-2.520
14901.000			-7.558			-2.519
15000.000			-7.558			-2.519
15100.000			-7.557			-2.519
15201.000			-7.556			-2.519
15301.000			-7.556			-2.519
15401.000			-7.555			-2.518
15501.000			-7.555			-2.518
15600.000			-7.554			-2.518
15700.000			-7.553			-2.518
15801.000			-7.552			-2.517
15900.000			-7.550			-2.517
16000.000			-7.550			-2.517
16102.000			-7.550			-2.517
16201.000			-7.550			-2.517
16300.000			-7.549			-2.516
16401.000			-7.548			-2.516
16500.000			-7.547			-2.516
16600.000			-7.546			-2.515
16701.000			-7.546			-2.515
16800.000			-7.545			-2.515
16901.000			-7.544			-2.515
17002.000			-7.543			-2.514
17100.000			-7.544			-2.515
17200.000			-7.544			-2.515
17301.000			-7.542			-2.514
17400.000			-7.541			-2.514
17500.000			-7.541			-2.514
17601.000			-7.540			-2.513
17701.000			-7.539			-2.513
17802.000			-7.540			-2.513
17900.000			-7.537			-2.512
18000.000			-7.537			-2.512
18101.000			-7.537			-2.512
18200.000			-7.536			-2.512
18300.000			-7.536			-2.512
18401.000			-7.535			-2.512
18501.000			-7.534			-2.511
18601.000			-7.535			-2.512
18701.000			-7.533			-2.511
18800.000			-7.532			-2.511
18900.000			-7.533			-2.511
19001.000			-7.532			-2.511
19100.000			-7.532			-2.511
19200.000			-7.532			-2.511
19302.000			-7.531			-2.510
19401.000			-7.530			-2.510
19500.000			-7.529			-2.510
19601.000			-7.529			-2.510
19700.000			-7.528			-2.509
19800.000			-7.527			-2.509
19901.000			-7.527			-2.509
20000.000			-7.527			-2.509
20101.000			-7.525			-2.508
20202.000			-7.525			-2.508
20300.000			-7.524			-2.508
20400.000			-7.523			-2.508
20501.000			-7.523			-2.508
20600.000			-7.523			-2.508
20700.000			-7.522			-2.507
20801.000			-7.522			-2.507
20901.000			-7.521			-2.507
21002.000			-7.520			-2.507
21100.000			-7.520			-2.507
21200.000			-7.519			-2.506
21301.000			-7.518			-2.506
21400.000			-7.518			-2.506
21500.000			-7.518			-2.506
21602.000			-7.518			-2.506
21701.000			-7.517			-2.506
21800.000			-7.516			-2.505
21901.000			-7.515			-2.505
22000.000			-7.516			-2.505
22100.000			-7.516			-2.505
22201.000			-7.515			-2.505
22300.000			-7.514			-2.505
22401.000			-7.514			-2.505
22502.000			-7.513			-2.504
22600.000			-7.513			-2.504
22700.000			-7.512			-2.504
22801.000			-7.511			-2.504
22900.000			-7.511			-2.504
23000.000			-7.510			-2.503
23101.000			-7.509			-2.503
23201.000			-7.509			-2.503
23301.000			-7.508			-2.503
23401.000			-7.508			-2.503
23500.000			-7.509			-2.503
23600.000			-7.509			-2.503
23701.000			-7.508			-2.503
23800.000			-7.506			-2.502
23900.000			-7.506			-2.502
24002.000			-7.506			-2.502
24101.000			-7.505			-2.502
24200.000			-7.505			-2.502
24300.000			-7.505			-2.502
24400.000			-7.504			-2.501
24501.000			-7.504			-2.501
24600.000			-7.503			-2.501
24700.000			-7.502			-2.501
24802.000			-7.502			-2.501
24901.000			-7.502			-2.501
25000.000			-7.501			-2.500
25101.000			-7.501			-2.500
25200.000			-7.501			-2.500
25300.000			-7.500			-2.500
25401.000			-7.500			-2.500
25501.000			-7.500			-2.500
25601.000			-7.499			-2.500
25701.000			-7.498			-2.499
25800.000			-7.498			-2.499
25900.000			-7.498			-2.499
26001.000			-7.498			-2.499
26100.000			-7.497			-2.499
26200.000			-7.496			-2.499
26302.000			-7.496			-2.499
26401.000			-7.495			-2.498
26501.000			-7.494			-2.498
26601.000			-7.495			-2.498
26700.000			-7.495			-2.498
26800.000			-7.494			-2.498
26901.000			-7.493			-2.498
27000.000			-7.493			-2.498
27100.000			-7.493			-2.498
27202.000			-7.493			-2.498
27301.000			-7.492			-2.497
27400.000			-7.492			-2.497
27500.000			-7.491			-2.497
27600.000			-7.490			-2.497
27701.000			-7.489			-2.496
27800.000			-7.489			-2.496
27900.000			-7.489			-2.496
28002.000			-7.489			-2.496
28101.000			-7.488			-2.496
28200.000			-7.488			-2.496
28301.000			-7.488			-2.496
28400.000			-7.488			-2.496
28500.000			-7.487			-2.496
28601.000			-7.486			-2.495
28700.000			-7.486			-2.495
28801.000			-7.486			-2.495
28902.000			-7.486			-2.495
29000.000			-7.486			-2.495
29100.000			-7.485			-2.495
29201.000			-7.484			-2.495
29300.000			-7.484			-2.495
29400.000			-7.483			-2.494
29501.000			-7.483			-2.494
29601.000			-7.483			-2.494
29701.000			-7.483			-2.494
29801.000			-7.482			-2.494
29900.000			-7.481			-2.494
30000.000			-7.481			-2.494
30101.000			-7.482			-2.494
30200.000			-7.481			-2.494
30300.000			-7.480			-2.493
30402.000			-7.479			-2.493
30501.000			-7.479			-2.493
30600.000			-7.479			-2.493
30700.000			-7.478			-2.493
30800.000			-7.479			-2.493
30901.000			-7.479			-2.493
31000.000			-7.478			-2.493
31100.000			-7.478			-2.493
31201.000			-7.477			-2.492
31301.000			-7.476			-2.492
31401.000			-7.476			-2.492
31501.000			-7.476			-2.492
31600.000			-7.475			-2.492
31700.000			-7.475			-2.492
31801.000			-7.475			-2.492
31900.000			-7.474			-2.491
32000.000			-7.474			-2.491
32102.000			-7.473			-2.491
32201.000			-7.472			-2.491
32300.000			-7.473			-2.491
32401.000			-7.473			-2.491
32500.000			-7.473			-2.491
32600.000			-7.472			-2.491
32701.000			-7.471			-2.490
32801.000			-7.471			-2.490
32901.000			-7.471			-2.490
33002.000			-7.472			-2.491
33100.000			-7.471			-2.490
33200.000			-7.471			-2.490
33301.000			-7.469			-2.490
33400.000			-7.468			-2.489
33500.000			-7.469			-2.490
33601.000			-7.469			-2.490
33701.000			-7.468			-2.489
33802.000			-7.467			-2.489
33900.000			-7.467			-2.489
34000.000			-7.468			-2.489
34101.000			-7.466			-2.489
34200.000			-7.466			-2.489
34300.000			-7.466			-2.489
34401.000			-7.466			-2.489
34501.000			-7.466			-2.489
34601.000			-7.465			-2.488
34701.000			-7.464			-2.488
34800.000			-7.465			-2.488
34900.000			-7.465			-2.488
35001.000			-7.464			-2.488
35100.000			-7.465			-2.488
35200.000			-7.464			-2.488
35302.000			-7.464			-2.488
35401.000			-7.463			-2.488
35500.000			-7.462			-2.487
35601.000			-7.461			-2.487
35700.000			-7.461			-2.487
35800.000			-7.461			-2.487
35901.000			-7.462			-2.487
36000.000			-7.461			-2.487
36101.000			-7.461			-2.487
36202.000			-7.460			-2.487
36300.000			-7.460			-2.487
36400.000			-7.459			-2.486
36501.000			-7.459			-2.486
36600.000			-7.459			-2.486
36700.000			-7.458			-2.486
36801.000			-7.458			-2.486
36901.000			-7.459			-2.486
37002.000			-7.458			-2.486
37100.000			-7.458			-2.486
37200.000			-7.458			-2.486
37301.000			-7.457			-2.486
37400.000			-7.455			-2.485
37500.000			-7.455			-2.485
37601.000			-7.456			-2.485
37701.000			-7.456			-2.485
37801.000			-7.454			-2.485
37901.000			-7.455			-2.485
38000.000			-7.455			-2.485
38100.000			-7.454			-2.485
38201.000			-7.454			-2.485
38300.000			-7.454			-2.485
38400.000			-7.454			-2.485
38502.000			-7.453			-2.484
38601.000			-7.453			-2.484
38700.000			-7.452			-2.484
38801.000			-7.452			-2.484
38900.000			-7.452			-2.484
39000.000			-7.452			-2.484
39101.000			-7.452			-2.484
39200.000			-7.451			-2.484
39301.000			-7.450			-2.483
39402.000			-7.450			-2.483
39500.000			-7.450			-2.483
39600.000			-7.450			-2.483
39701.000			-7.451			-2.484
39800.000			-7.450			-2.483
39900.000			-7.449			-2.483
40001.000			-7.449			-2.483
40101.000			-7.448			-2.483
40202.000			-7.448			-2.483
40300.000			-7.448			-2.483
40400.000			-7.447			-2.482
40501.000			-7.447			-2.482
40600.000			-7.447			-2.482
40700.000			-7.446			-2.482
40801.000			-7.446			-2.482
40901.000			-7.447			-2.482
41001.000			-7.447			-2.482
41101.000			-7.446			-2.482
41200.000			-7.445			-2.482
41300.000			-7.445			-2.482
41401.000			-7.445			-2.482
41500.000			-7.443			-2.481
41601.000			-7.443			-2.481
41702.000			-7.443			-2.481
41801.000			-7.443			-2.481
41900.000			-7.444			-2.481
42001.000			-7.444			-2.481
42100.000			-7.445			-2.482
42200.000			-7.442			-2.481
42301.000			-7.442			-2.481
42401.000			-7.441			-2.480
42501.000			-7.441			-2.480
42601.000			-7.441			-2.480
42700.000			-7.442			-2.481
42800.000			-7.442			-2.481
42901.000			-7.441			-2.480
43000.000			-7.441			-2.480
43100.000			-7.441			-2.480
43202.000			-7.440			-2.480
43301.000			-7.440			-2.480
43400.000			-7.440			-2.480
43500.000			-7.439			-2.480
43600.000			-7.440			-2.480
43701.000			-7.439			-2.480
43800.000			-7.439			-2.480
43900.000			-7.438			-2.479
44002.000			-7.437			-2.479
44101.000			-7.438			-2.479
44200.000			-7.438			-2.479
44301.000			-7.437			-2.479
44400.000			-7.436			-2.479
44500.000			-7.437			-2.479
44601.000			-7.437			-2.479
44700.000			-7.437			-2.479
44801.000			-7.437			-2.479
44902.000			-7.435			-2.478
45000.000			-7.435			-2.478
45100.000			-7.435			-2.478
45201.000			-7.436			-2.479
45300.000			-7.435			-2.478
45400.000			-7.433			-2.478
45501.000			-7.434			-2.478
45601.000			-7.434			-2.478
45701.000			-7.434			-2.478
45801.000			-7.434			-2.478
45900.000			-7.433			-2.478
46000.000			-7.433			-2.478
46101.000			-7.432			-2.477
46200.000			-7.432			-2.477
46300.000			-7.432			-2.477
46402.000			-7.432			-2.477
46501.000			-7.432			-2.477
46600.000			-7.431			-2.477
46700.000			-7.432			-2.477
46800.000			-7.431			-2.477
46901.000			-7.431			-2.477
47000.000			-7.431			-2.477
47100.000			-7.431			-2.477
47202.000			-7.431			-2.477
47301.000			-7.431			-2.477
47400.000			-7.430			-2.477
47501.000			-7.430			-2.477
47600.000			-7.430			-2.477
47700.000			-7.430			-2.477
47801.000			-7.429			-2.476
47900.000			-7.429			-2.476
48001.000			-7.428			-2.476
48102.000			-7.429			-2.476
48200.000			-7.428			-2.476
48300.000			-7.428			-2.476
48401.000			-7.428			-2.476
48500.000			-7.427			-2.476
48600.000			-7.427			-2.476
48701.000			-7.427			-2.476
48801.000			-7.427			-2.476
48901.000			-7.427			-2.476
49001.000			-7.427			-2.476
49100.000			-7.427			-2.476
49200.000			-7.426			-2.475
49301.000			-7.426			-2.475
49400.000			-7.425			-2.475
49500.000			-7.425			-2.475
49602.000			-7.424			-2.475
49701.000			-7.424			-2.475
49800.000			-7.423			-2.474
49900.000			-7.424			-2.475
50000.000			-7.424			-2.475
50101.000			-7.424			-2.475
50200.000			-7.424			-2.475
50300.000			-7.423			-2.474
50402.000			-7.423			-2.474
50501.000			-7.423			-2.474
50600.000			-7.422			-2.474
50701.000			-7.422			-2.474
50800.000			-7.421			-2.474
50900.000			-7.421			-2.474
51001.000			-7.423			-2.474
51101.000			-7.422			-2.474
51201.000			-7.421			-2.474
51301.000			-7.420			-2.473
51400.000			-7.421			-2.474
51500.000			-7.421			-2.474
51601.000			-7.420			-2.473
51700.000			-7.418			-2.473
51800.000			-7.421			-2.474
51902.000			-7.420			-2.473
52001.000			-7.419			-2.473
52100.000			-7.419			-2.473
52201.000			-7.420			-2.473
52300.000			-7.419			-2.473
52400.000			-7.419			-2.473
52501.000			-7.418			-2.473
52600.000			-7.418			-2.473
52701.000			-7.418			-2.473
52802.000			-7.418			-2.473
52900.000			-7.417			-2.472
53000.000			-7.417			-2.472
53100.000			-7.417			-2.472
53200.000			-7.416			-2.472
53301.000			-7.416			-2.472
53400.000			-7.417			-2.472
53501.000			-7.416			-2.472
53602.000			-7.416			-2.472
53700.000			-7.417			-2.472
53800.000			-7.417			-2.472
53901.000			-7.416			-2.472
54000.000			-7.415			-2.472
54100.000			-7.414			-2.471
54201.000			-7.415			-2.472
54301.000			-7.415			-2.472
54401.000			-7.414			-2.471
54501.000			-7.414			-2.471
54600.000			-7.414			-2.471
54700.000			-7.414			-2.471
54801.000			-7.414			-2.471
54900.000			-7.413			-2.471
55001.000			-7.412			-2.471
55102.000			-7.413			-2.471
55201.000			-7.412			-2.471
55300.000			-7.411			-2.470
55401.000			-7.412			-2.471
55500.000			-7.413			-2.471
55600.000			-7.412			-2.471
55701.000			-7.411			-2.470
55801.000			-7.411			-2.470
55901.000			-7.411			-2.470
56001.000			-7.411			-2.470
56100.000			-7.411			-2.470
56200.000			-7.411			-2.470
56300.000			-7.411			-2.470
56400.000			-7.412			-2.471
56501.000			-7.411			-2.470
56601.000			-7.410			-2.470
56701.000			-7.410			-2.470
56801.000			-7.410			-2.470
56900.000			-7.409			-2.470
57000.000			-7.410			-2.470
57101.000			-7.409			-2.470
57200.000			-7.409			-2.470
57300.000			-7.409			-2.470
57402.000			-7.409			-2.470
57501.000			-7.409			-2.470
57600.000			-7.408			-2.469
57701.000			-7.407			-2.469
57800.000			-7.407			-2.469
57900.000			-7.407			-2.469
58001.000			-7.407			-2.469
58100.000			-7.407			-2.469
58201.000			-7.406			-2.469
58302.000			-7.406			-2.469
58400.000			-7.406			-2.469
58500.000			-7.406			-2.469
58601.000			-7.406			-2.469
58700.000			-7.406			-2.469
58800.000			-7.407			-2.469
58901.000			-7.407			-2.469
59001.000			-7.405			-2.468
59101.000			-7.405			-2.468
59201.000			-7.405			-2.468
59300.000			-7.405			-2.468
59400.000			-7.405			-2.468
59500.000			-7.405			-2.468
59600.000			-7.403			-2.468
59701.000			-7.403			-2.468
59801.000			-7.404			-2.468
59901.000			-7.404			-2.468
60001.000			-7.404			-2.468
60100.000			-7.402			-2.467
60200.000			-7.403			-2.468
60301.000			-7.403			-2.468
60400.000			-7.403			-2.468
60500.000			-7.403			-2.468
60602.000			-7.402			-2.467
60701.000			-7.401			-2.467
60800.000			-7.401			-2.467
60901.000			-7.402			-2.467
61000.000			-7.401			-2.467
61100.000			-7.401			-2.467
61201.000			-7.402			-2.467
61300.000			-7.401			-2.467
61401.000			-7.401			-2.467
61502.000			-7.400			-2.467
61600.000			-7.401			-2.467
61700.000			-7.400			-2.467
61801.000			-7.400			-2.467
61900.000			-7.399			-2.466
62000.000			-7.398			-2.466
62102.000			-7.400			-2.467
62201.000			-7.400			-2.467
62301.000			-7.399			-2.466
62401.000			-7.398			-2.466
62500.000			-7.398			-2.466
62600.000			-7.399			-2.466
62700.000			-7.398			-2.466
62800.000			-7.397			-2.466
62901.000			-7.397			-2.466
63001.000			-7.397			-2.466
63101.000			-7.398			-2.466
63201.000			-7.398			-2.466
63300.000			-7.398			-2.466
63400.000			-7.397			-2.466
63501.000			-7.397			-2.466
63600.000			-7.397			-2.466
63700.000			-7.397			-2.466
63802.000			-7.396			-2.465
63901.000			-7.395			-2.465
64000.000			-7.396			-2.465
64101.000			-7.396			-2.465
64200.000			-7.396			-2.465
64300.000			-7.395			-2.465
64401.000			-7.394			-2.465
64500.000			-7.394			-2.465
64601.000			-7.395			-2.465
64702.000			-7.395			-2.465
64800.000			-7.394			-2.465
64900.000			-7.394			-2.465
65001.000			-7.395			-2.465
65100.000			-7.395			-2.465
65200.000			-7.394			-2.465
65301.000			-7.395			-2.465
65401.000			-7.394			-2.465
65501.000			-7.394			-2.465
65601.000			-7.392			-2.464
65700.000			-7.393			-2.464
65800.000			-7.392			-2.464
65900.000			-7.392			-2.464
66000.000			-7.393			-2.464
66101.000			-7.392			-2.464
66201.000			-7.392			-2.464
66301.000			-7.392			-2.464
66401.000			-7.393			-2.464
66500.000			-7.392			-2.464
66600.000			-7.391			-2.464
66701.000			-7.391			-2.464
66800.000			-7.391			-2.464
66900.000			-7.391			-2.464
67002.000			-7.391			-2.464
67101.000			-7.391			-2.464
67200.000			-7.390			-2.463
67301.000			-7.390			-2.463
67400.000			-7.390			-2.463
67500.000			-7.389			-2.463
67601.000			-7.389			-2.463
67700.000			-7.389			-2.463
67800.000			-7.389			-2.463
67902.000			-7.389			-2.463
68001.000			-7.389			-2.463
68100.000			-7.389			-2.463
68201.000			-7.388			-2.463
68300.000			-7.388			-2.463
68400.000			-7.389			-2.463
68501.000			-7.388			-2.463
68600.000			-7.388			-2.463
68701.000			-7.388			-2.463
68802.000			-7.388			-2.463
68900.000			-7.388			-2.463
69000.000			-7.388			-2.463
69100.000			-7.387			-2.462
69200.000			-7.386			-2.462
69301.000			-7.387			-2.462
69400.000			-7.386			-2.462
69500.000			-7.387			-2.462
69602.000			-7.387			-2.462
69701.000			-7.386			-2.462
69800.000			-7.387			-2.462
69901.000			-7.386			-2.462
70000.000			-7.386			-2.462
70100.000			-7.386			-2.462
70201.000			-7.385			-2.462
70300.000			-7.385			-2.462
70401.000			-7.385			-2.462
70502.000			-7.385			-2.462
70600.000			-7.385			-2.462
70700.000			-7.386			-2.462
70801.000			-7.386			-2.462
70900.000			-7.384			-2.461
71000.000			-7.384			-2.461
71101.000			-7.384			-2.461
71201.000			-7.384			-2.461
