# Acquired on 26/01/2024 09:44:25 
# SPIDER: Creep_3mm_HM077x145x38AA-1
# CREEP MEASUREMENT

# time [ms]		force [N]		stiffness [N/mm]
0.000			-13.236			-4.412
104.000			-14.219			-4.740
204.000			-14.542			-4.847
304.000			-14.550			-4.850
405.000			-14.483			-4.828
504.000			-14.459			-4.820
605.000			-14.438			-4.813
704.000			-14.419			-4.806
803.000			-14.402			-4.801
905.000			-14.388			-4.796
1004.000			-14.374			-4.791
1104.000			-14.360			-4.787
1205.000			-14.338			-4.779
1303.000			-14.327			-4.776
1404.000			-14.317			-4.772
1505.000			-14.307			-4.769
1604.000			-14.298			-4.766
1704.000			-14.289			-4.763
1804.000			-14.281			-4.760
1904.000			-14.265			-4.755
2003.000			-14.258			-4.753
2105.000			-14.252			-4.751
2204.000			-14.244			-4.748
2304.000			-14.237			-4.746
2405.000			-14.232			-4.744
2503.000			-14.226			-4.742
2604.000			-14.213			-4.738
2705.000			-14.207			-4.736
2804.000			-14.202			-4.734
2904.000			-14.197			-4.732
3005.000			-14.192			-4.731
3104.000			-14.187			-4.729
3203.000			-14.182			-4.727
3305.000			-14.172			-4.724
3404.000			-14.169			-4.723
3504.000			-14.164			-4.721
3605.000			-14.161			-4.720
3703.000			-14.157			-4.719
3805.000			-14.151			-4.717
3904.000			-14.148			-4.716
4004.000			-14.144			-4.715
4105.000			-14.136			-4.712
4204.000			-14.132			-4.711
4304.000			-14.128			-4.709
4404.000			-14.125			-4.708
4504.000			-14.121			-4.707
4604.000			-14.118			-4.706
4705.000			-14.114			-4.705
4804.000			-14.108			-4.703
4903.000			-14.105			-4.702
5005.000			-14.101			-4.700
5104.000			-14.098			-4.699
5204.000			-14.095			-4.698
5305.000			-14.093			-4.698
5404.000			-14.091			-4.697
5504.000			-14.085			-4.695
5604.000			-14.080			-4.693
5704.000			-14.077			-4.692
5804.000			-14.075			-4.692
5905.000			-14.072			-4.691
6004.000			-14.069			-4.690
6103.000			-14.067			-4.689
6205.000			-14.065			-4.688
6304.000			-14.059			-4.686
6404.000			-14.056			-4.685
6505.000			-14.054			-4.685
6604.000			-14.053			-4.684
6704.000			-14.050			-4.683
6804.000			-14.047			-4.682
6904.000			-14.045			-4.682
7005.000			-14.039			-4.680
7104.000			-14.037			-4.679
7204.000			-14.035			-4.678
7305.000			-14.033			-4.678
7404.000			-14.031			-4.677
7503.000			-14.029			-4.676
7605.000			-14.026			-4.675
7704.000			-14.022			-4.674
7804.000			-14.019			-4.673
7905.000			-14.017			-4.672
8003.000			-14.015			-4.672
8104.000			-14.014			-4.671
8205.000			-14.012			-4.671
8304.000			-14.009			-4.670
8404.000			-14.007			-4.669
8505.000			-14.004			-4.668
8604.000			-14.002			-4.667
8703.000			-14.000			-4.667
8805.000			-13.998			-4.666
8904.000			-13.996			-4.665
9004.000			-13.994			-4.665
9105.000			-13.992			-4.664
9203.000			-13.988			-4.663
9304.000			-13.986			-4.662
9405.000			-13.984			-4.661
9504.000			-13.982			-4.661
9604.000			-13.980			-4.660
9705.000			-13.979			-4.660
9804.000			-13.978			-4.659
9903.000			-13.974			-4.658
10005.000			-13.973			-4.658
10104.000			-13.971			-4.657
10205.000			-13.970			-4.657
10304.000			-13.968			-4.656
10404.000			-13.965			-4.655
10505.000			-13.963			-4.654
10603.000			-13.962			-4.654
10704.000			-13.959			-4.653
10805.000			-13.958			-4.653
10904.000			-13.956			-4.652
11004.000			-13.955			-4.652
11105.000			-13.953			-4.651
11204.000			-13.951			-4.650
11303.000			-13.949			-4.650
11405.000			-13.946			-4.649
11504.000			-13.945			-4.648
11604.000			-13.943			-4.648
11705.000			-13.941			-4.647
11804.000			-13.940			-4.647
11904.000			-13.940			-4.647
12004.000			-13.939			-4.646
12104.000			-13.936			-4.645
12204.000			-13.935			-4.645
12305.000			-13.933			-4.644
12404.000			-13.931			-4.644
12503.000			-13.929			-4.643
12605.000			-13.928			-4.643
12704.000			-13.927			-4.642
12804.000			-13.926			-4.642
12905.000			-13.924			-4.641
13004.000			-13.922			-4.641
13104.000			-13.920			-4.640
13204.000			-13.919			-4.640
13304.000			-13.918			-4.639
13405.000			-13.917			-4.639
13504.000			-13.915			-4.638
13604.000			-13.912			-4.637
13705.000			-13.910			-4.637
13804.000			-13.910			-4.637
13903.000			-13.909			-4.636
14005.000			-13.907			-4.636
14104.000			-13.906			-4.635
14204.000			-13.905			-4.635
14305.000			-13.901			-4.634
14404.000			-13.901			-4.634
14504.000			-13.900			-4.633
14604.000			-13.898			-4.633
14704.000			-13.898			-4.633
14804.000			-13.897			-4.632
14905.000			-13.895			-4.632
15004.000			-13.893			-4.631
15104.000			-13.892			-4.631
15205.000			-13.890			-4.630
15303.000			-13.889			-4.630
15404.000			-13.888			-4.629
15505.000			-13.886			-4.629
15604.000			-13.885			-4.628
15704.000			-13.884			-4.628
15805.000			-13.882			-4.627
15904.000			-13.881			-4.627
16003.000			-13.880			-4.627
16105.000			-13.879			-4.626
16204.000			-13.878			-4.626
16304.000			-13.877			-4.626
16405.000			-13.876			-4.625
16504.000			-13.875			-4.625
16605.000			-13.873			-4.624
16703.000			-13.871			-4.624
16804.000			-13.869			-4.623
16905.000			-13.868			-4.623
17004.000			-13.868			-4.623
17104.000			-13.868			-4.623
17205.000			-13.866			-4.622
17304.000			-13.864			-4.621
17403.000			-13.863			-4.621
17505.000			-13.862			-4.621
17604.000			-13.861			-4.620
17704.000			-13.861			-4.620
17805.000			-13.859			-4.620
17904.000			-13.858			-4.619
18004.000			-13.856			-4.619
18104.000			-13.854			-4.618
18204.000			-13.854			-4.618
18304.000			-13.853			-4.618
18405.000			-13.851			-4.617
18504.000			-13.851			-4.617
18604.000			-13.850			-4.617
18705.000			-13.849			-4.616
18803.000			-13.847			-4.616
18904.000			-13.847			-4.616
19005.000			-13.846			-4.615
19104.000			-13.846			-4.615
19204.000			-13.844			-4.615
19304.000			-13.842			-4.614
19404.000			-13.842			-4.614
19503.000			-13.840			-4.613
19605.000			-13.839			-4.613
19704.000			-13.837			-4.612
19805.000			-13.836			-4.612
19904.000			-13.836			-4.612
20004.000			-13.836			-4.612
20105.000			-13.835			-4.612
20203.000			-13.832			-4.611
20304.000			-13.832			-4.611
20405.000			-13.830			-4.610
20504.000			-13.829			-4.610
20604.000			-13.830			-4.610
20704.000			-13.829			-4.610
20804.000			-13.826			-4.609
20903.000			-13.825			-4.608
21005.000			-13.824			-4.608
21104.000			-13.824			-4.608
21204.000			-13.823			-4.608
21305.000			-13.822			-4.607
21403.000			-13.819			-4.606
21504.000			-13.819			-4.606
21605.000			-13.819			-4.606
21704.000			-13.816			-4.605
21804.000			-13.815			-4.605
21905.000			-13.815			-4.605
22004.000			-13.814			-4.605
22103.000			-13.812			-4.604
22205.000			-13.812			-4.604
22304.000			-13.811			-4.604
22404.000			-13.811			-4.604
22505.000			-13.810			-4.603
22604.000			-13.809			-4.603
22704.000			-13.808			-4.603
22804.000			-13.808			-4.603
22904.000			-13.807			-4.602
23005.000			-13.807			-4.602
23104.000			-13.805			-4.602
23204.000			-13.805			-4.602
23305.000			-13.804			-4.601
23404.000			-13.802			-4.601
23503.000			-13.801			-4.600
23605.000			-13.801			-4.600
23704.000			-13.801			-4.600
23804.000			-13.800			-4.600
23905.000			-13.798			-4.599
24003.000			-13.797			-4.599
24104.000			-13.796			-4.599
24205.000			-13.795			-4.598
24304.000			-13.795			-4.598
24404.000			-13.794			-4.598
24505.000			-13.792			-4.597
24604.000			-13.791			-4.597
24703.000			-13.791			-4.597
24805.000			-13.789			-4.596
24903.000			-13.789			-4.596
25004.000			-13.789			-4.596
25105.000			-13.788			-4.596
25204.000			-13.788			-4.596
25304.000			-13.785			-4.595
25404.000			-13.785			-4.595
25504.000			-13.783			-4.594
25603.000			-13.783			-4.594
25705.000			-13.784			-4.595
25804.000			-13.782			-4.594
25904.000			-13.781			-4.594
26005.000			-13.781			-4.594
26104.000			-13.779			-4.593
26205.000			-13.778			-4.593
26303.000			-13.778			-4.593
26404.000			-13.778			-4.593
26505.000			-13.777			-4.592
26604.000			-13.774			-4.591
26704.000			-13.775			-4.592
26805.000			-13.774			-4.591
26904.000			-13.772			-4.591
27003.000			-13.771			-4.590
27105.000			-13.771			-4.590
27204.000			-13.771			-4.590
27304.000			-13.770			-4.590
27405.000			-13.768			-4.589
27504.000			-13.767			-4.589
27604.000			-13.766			-4.589
27704.000			-13.766			-4.589
27804.000			-13.766			-4.589
27904.000			-13.766			-4.589
28005.000			-13.765			-4.588
28104.000			-13.764			-4.588
28204.000			-13.763			-4.588
28305.000			-13.761			-4.587
28403.000			-13.761			-4.587
28504.000			-13.761			-4.587
28605.000			-13.760			-4.587
28704.000			-13.759			-4.586
28804.000			-13.758			-4.586
28905.000			-13.758			-4.586
29004.000			-13.758			-4.586
29103.000			-13.757			-4.586
29205.000			-13.755			-4.585
29304.000			-13.754			-4.585
29405.000			-13.754			-4.585
29504.000			-13.753			-4.584
29604.000			-13.753			-4.584
29705.000			-13.752			-4.584
29803.000			-13.752			-4.584
29904.000			-13.751			-4.584
30005.000			-13.750			-4.583
30104.000			-13.749			-4.583
30204.000			-13.747			-4.582
30305.000			-13.748			-4.583
30404.000			-13.748			-4.583
30503.000			-13.745			-4.582
30605.000			-13.746			-4.582
30704.000			-13.745			-4.582
30804.000			-13.744			-4.581
30905.000			-13.744			-4.581
31004.000			-13.743			-4.581
31104.000			-13.741			-4.580
31204.000			-13.741			-4.580
31304.000			-13.740			-4.580
31404.000			-13.739			-4.580
31505.000			-13.738			-4.579
31604.000			-13.737			-4.579
31703.000			-13.737			-4.579
31805.000			-13.738			-4.579
31904.000			-13.736			-4.579
32004.000			-13.735			-4.578
32105.000			-13.735			-4.578
32204.000			-13.735			-4.578
32304.000			-13.734			-4.578
32404.000			-13.734			-4.578
32504.000			-13.732			-4.577
32605.000			-13.732			-4.577
32704.000			-13.730			-4.577
32804.000			-13.730			-4.577
32905.000			-13.729			-4.576
33004.000			-13.728			-4.576
33103.000			-13.728			-4.576
33205.000			-13.727			-4.576
33304.000			-13.727			-4.576
33404.000			-13.726			-4.575
33505.000			-13.725			-4.575
33604.000			-13.724			-4.575
33704.000			-13.724			-4.575
33804.000			-13.723			-4.574
33904.000			-13.724			-4.575
34004.000			-13.724			-4.575
34105.000			-13.723			-4.574
34204.000			-13.721			-4.574
34304.000			-13.721			-4.574
34405.000			-13.721			-4.574
34503.000			-13.720			-4.573
34604.000			-13.719			-4.573
34705.000			-13.718			-4.573
34804.000			-13.718			-4.573
34904.000			-13.715			-4.572
35004.000			-13.716			-4.572
35104.000			-13.716			-4.572
35204.000			-13.715			-4.572
35305.000			-13.715			-4.572
35404.000			-13.714			-4.571
35504.000			-13.713			-4.571
35605.000			-13.712			-4.571
35703.000			-13.712			-4.571
35805.000			-13.711			-4.570
35904.000			-13.710			-4.570
36004.000			-13.710			-4.570
36105.000			-13.709			-4.570
36204.000			-13.710			-4.570
36304.000			-13.708			-4.569
36404.000			-13.708			-4.569
36504.000			-13.707			-4.569
36604.000			-13.705			-4.568
36705.000			-13.706			-4.569
36804.000			-13.705			-4.568
36904.000			-13.705			-4.568
37005.000			-13.704			-4.568
37103.000			-13.702			-4.567
37204.000			-13.702			-4.567
37305.000			-13.702			-4.567
37404.000			-13.702			-4.567
37504.000			-13.701			-4.567
37605.000			-13.700			-4.567
37704.000			-13.700			-4.567
37803.000			-13.699			-4.566
37905.000			-13.698			-4.566
38004.000			-13.698			-4.566
38104.000			-13.698			-4.566
38205.000			-13.697			-4.566
38304.000			-13.697			-4.566
38404.000			-13.696			-4.565
38504.000			-13.697			-4.566
38604.000			-13.695			-4.565
38704.000			-13.693			-4.564
38805.000			-13.693			-4.564
38904.000			-13.694			-4.565
39005.000			-13.694			-4.565
39104.000			-13.692			-4.564
39203.000			-13.692			-4.564
39305.000			-13.691			-4.564
39404.000			-13.690			-4.563
39504.000			-13.689			-4.563
39605.000			-13.690			-4.563
39704.000			-13.689			-4.563
39804.000			-13.688			-4.563
39904.000			-13.688			-4.563
40004.000			-13.687			-4.562
40104.000			-13.686			-4.562
40205.000			-13.686			-4.562
40304.000			-13.685			-4.562
40404.000			-13.685			-4.562
40505.000			-13.683			-4.561
40603.000			-13.684			-4.561
40704.000			-13.683			-4.561
40805.000			-13.682			-4.561
40904.000			-13.681			-4.560
41004.000			-13.681			-4.560
41104.000			-13.680			-4.560
41204.000			-13.680			-4.560
41303.000			-13.680			-4.560
41405.000			-13.680			-4.560
41504.000			-13.680			-4.560
41604.000			-13.679			-4.560
41705.000			-13.678			-4.559
41804.000			-13.678			-4.559
41904.000			-13.678			-4.559
42004.000			-13.678			-4.559
42104.000			-13.677			-4.559
42205.000			-13.675			-4.558
42304.000			-13.675			-4.558
42404.000			-13.675			-4.558
42504.000			-13.675			-4.558
42604.000			-13.674			-4.558
42703.000			-13.674			-4.558
42805.000			-13.673			-4.558
42904.000			-13.671			-4.557
43004.000			-13.671			-4.557
43105.000			-13.671			-4.557
43203.000			-13.670			-4.557
43304.000			-13.670			-4.557
43405.000			-13.669			-4.556
43504.000			-13.669			-4.556
43604.000			-13.668			-4.556
43705.000			-13.668			-4.556
43804.000			-13.666			-4.555
43903.000			-13.665			-4.555
44005.000			-13.665			-4.555
44104.000			-13.666			-4.555
44204.000			-13.666			-4.555
44305.000			-13.665			-4.555
44404.000			-13.664			-4.555
44504.000			-13.663			-4.554
44604.000			-13.662			-4.554
44704.000			-13.662			-4.554
44804.000			-13.662			-4.554
44905.000			-13.661			-4.554
45004.000			-13.661			-4.554
45104.000			-13.660			-4.553
45205.000			-13.660			-4.553
45303.000			-13.658			-4.553
45405.000			-13.658			-4.553
45504.000			-13.658			-4.553
45604.000			-13.658			-4.553
45705.000			-13.657			-4.552
45804.000			-13.657			-4.552
45904.000			-13.656			-4.552
46004.000			-13.655			-4.552
46104.000			-13.656			-4.552
46204.000			-13.655			-4.552
46305.000			-13.655			-4.552
46404.000			-13.654			-4.551
46504.000			-13.654			-4.551
46605.000			-13.652			-4.551
46703.000			-13.652			-4.551
46804.000			-13.652			-4.551
46905.000			-13.652			-4.551
47004.000			-13.652			-4.551
47104.000			-13.651			-4.550
47205.000			-13.650			-4.550
47304.000			-13.650			-4.550
47403.000			-13.649			-4.550
47505.000			-13.649			-4.550
47604.000			-13.647			-4.549
47704.000			-13.648			-4.549
47805.000			-13.648			-4.549
47904.000			-13.648			-4.549
48004.000			-13.646			-4.549
48104.000			-13.645			-4.548
48204.000			-13.645			-4.548
48304.000			-13.644			-4.548
48405.000			-13.644			-4.548
48504.000			-13.643			-4.548
48603.000			-13.643			-4.548
48704.000			-13.642			-4.547
48803.000			-13.642			-4.547
48905.000			-13.642			-4.547
49004.000			-13.642			-4.547
49104.000			-13.641			-4.547
49205.000			-13.641			-4.547
49303.000			-13.640			-4.547
49404.000			-13.640			-4.547
49505.000			-13.639			-4.546
49604.000			-13.640			-4.547
49704.000			-13.639			-4.546
49805.000			-13.639			-4.546
49904.000			-13.637			-4.546
50004.000			-13.637			-4.546
50105.000			-13.637			-4.546
50203.000			-13.637			-4.546
50304.000			-13.636			-4.545
50405.000			-13.636			-4.545
50504.000			-13.636			-4.545
50604.000			-13.635			-4.545
50704.000			-13.633			-4.544
50804.000			-13.632			-4.544
50904.000			-13.632			-4.544
51005.000			-13.632			-4.544
51104.000			-13.632			-4.544
51204.000			-13.633			-4.544
51305.000			-13.633			-4.544
51403.000			-13.631			-4.544
51504.000			-13.629			-4.543
51605.000			-13.630			-4.543
51704.000			-13.629			-4.543
51805.000			-13.629			-4.543
51904.000			-13.629			-4.543
52004.000			-13.628			-4.543
52104.000			-13.628			-4.543
52204.000			-13.628			-4.543
52304.000			-13.627			-4.542
52405.000			-13.628			-4.543
52504.000			-13.627			-4.542
52604.000			-13.626			-4.542
52705.000			-13.625			-4.542
52803.000			-13.625			-4.542
52904.000			-13.625			-4.542
53005.000			-13.625			-4.542
53104.000			-13.624			-4.541
53204.000			-13.623			-4.541
53304.000			-13.622			-4.541
53404.000			-13.622			-4.541
53504.000			-13.622			-4.541
53605.000			-13.621			-4.540
53704.000			-13.620			-4.540
53804.000			-13.621			-4.540
53905.000			-13.620			-4.540
54003.000			-13.621			-4.540
54104.000			-13.621			-4.540
54205.000			-13.619			-4.540
54304.000			-13.618			-4.539
54404.000			-13.619			-4.540
54505.000			-13.618			-4.539
54604.000			-13.618			-4.539
54703.000			-13.617			-4.539
54805.000			-13.617			-4.539
54904.000			-13.617			-4.539
55005.000			-13.616			-4.539
55104.000			-13.616			-4.539
55204.000			-13.616			-4.539
55305.000			-13.616			-4.539
55403.000			-13.615			-4.538
55504.000			-13.615			-4.538
55605.000			-13.615			-4.538
55704.000			-13.614			-4.538
55804.000			-13.613			-4.538
55905.000			-13.612			-4.537
56004.000			-13.612			-4.537
56103.000			-13.612			-4.537
56205.000			-13.611			-4.537
56304.000			-13.611			-4.537
56404.000			-13.611			-4.537
56505.000			-13.610			-4.537
56603.000			-13.610			-4.537
56704.000			-13.610			-4.537
56805.000			-13.609			-4.536
56904.000			-13.608			-4.536
57004.000			-13.609			-4.536
57105.000			-13.608			-4.536
57204.000			-13.607			-4.536
57303.000			-13.607			-4.536
57405.000			-13.607			-4.536
57504.000			-13.607			-4.536
57604.000			-13.606			-4.535
57705.000			-13.604			-4.535
57804.000			-13.604			-4.535
57904.000			-13.604			-4.535
58004.000			-13.604			-4.535
58104.000			-13.604			-4.535
58205.000			-13.603			-4.534
58304.000			-13.603			-4.534
58404.000			-13.603			-4.534
58505.000			-13.602			-4.534
58604.000			-13.602			-4.534
58703.000			-13.602			-4.534
58805.000			-13.601			-4.534
58904.000			-13.601			-4.534
59004.000			-13.599			-4.533
59105.000			-13.599			-4.533
59204.000			-13.599			-4.533
59304.000			-13.598			-4.533
59404.000			-13.598			-4.533
59504.000			-13.597			-4.532
59604.000			-13.598			-4.533
59705.000			-13.597			-4.532
59804.000			-13.597			-4.532
59904.000			-13.597			-4.532
60005.000			-13.596			-4.532
60103.000			-13.596			-4.532
60204.000			-13.596			-4.532
60305.000			-13.594			-4.531
60404.000			-13.594			-4.531
60504.000			-13.594			-4.531
60605.000			-13.593			-4.531
60704.000			-13.593			-4.531
60803.000			-13.593			-4.531
60905.000			-13.592			-4.531
61004.000			-13.592			-4.531
61104.000			-13.591			-4.530
61205.000			-13.591			-4.530
61304.000			-13.591			-4.530
61405.000			-13.590			-4.530
61503.000			-13.591			-4.530
61604.000			-13.590			-4.530
61705.000			-13.590			-4.530
61804.000			-13.590			-4.530
61904.000			-13.590			-4.530
62004.000			-13.589			-4.530
62104.000			-13.588			-4.529
62203.000			-13.588			-4.529
62305.000			-13.588			-4.529
62404.000			-13.589			-4.530
62504.000			-13.588			-4.529
62605.000			-13.587			-4.529
62704.000			-13.587			-4.529
62804.000			-13.585			-4.528
62904.000			-13.584			-4.528
63004.000			-13.585			-4.528
63104.000			-13.585			-4.528
63205.000			-13.585			-4.528
63304.000			-13.584			-4.528
63404.000			-13.582			-4.527
63505.000			-13.582			-4.527
63603.000			-13.582			-4.527
63704.000			-13.582			-4.527
63805.000			-13.580			-4.527
63904.000			-13.580			-4.527
64004.000			-13.579			-4.526
64105.000			-13.578			-4.526
64204.000			-13.578			-4.526
64303.000			-13.578			-4.526
64405.000			-13.577			-4.526
64504.000			-13.576			-4.525
64605.000			-13.577			-4.526
64704.000			-13.576			-4.525
64804.000			-13.577			-4.526
64905.000			-13.575			-4.525
65003.000			-13.574			-4.525
65104.000			-13.575			-4.525
65205.000			-13.575			-4.525
65304.000			-13.574			-4.525
65404.000			-13.574			-4.525
65505.000			-13.574			-4.525
65604.000			-13.574			-4.525
65703.000			-13.574			-4.525
65805.000			-13.572			-4.524
65904.000			-13.573			-4.524
66004.000			-13.573			-4.524
66105.000			-13.573			-4.524
66204.000			-13.572			-4.524
66304.000			-13.572			-4.524
66404.000			-13.571			-4.524
66504.000			-13.572			-4.524
66604.000			-13.572			-4.524
66705.000			-13.570			-4.523
66804.000			-13.570			-4.523
66904.000			-13.570			-4.523
67005.000			-13.571			-4.524
67103.000			-13.570			-4.523
67204.000			-13.568			-4.523
67305.000			-13.567			-4.522
67404.000			-13.567			-4.522
67504.000			-13.567			-4.522
67605.000			-13.567			-4.522
67704.000			-13.566			-4.522
67803.000			-13.567			-4.522
67904.000			-13.568			-4.523
68004.000			-13.567			-4.522
68105.000			-13.567			-4.522
68204.000			-13.566			-4.522
68304.000			-13.566			-4.522
68405.000			-13.566			-4.522
68503.000			-13.566			-4.522
68604.000			-13.565			-4.522
68705.000			-13.564			-4.521
