# Acquired on 25/01/2024 14:40:16 
# SPIDER: Creep_-5mm_GRPCNT1454A-3
# CREEP MEASUREMENT

# time [ms]		force [N]		stiffness [N/mm]
1.000			21.340			-4.268
104.000			21.921			-4.384
204.000			21.945			-4.389
305.000			21.747			-4.349
404.000			21.589			-4.318
504.000			21.368			-4.274
605.000			21.281			-4.256
704.000			21.205			-4.241
804.000			21.138			-4.228
905.000			21.077			-4.215
1004.000			21.022			-4.204
1104.000			20.972			-4.194
1204.000			20.882			-4.176
1304.000			20.841			-4.168
1404.000			20.803			-4.161
1504.000			20.768			-4.154
1604.000			20.734			-4.147
1704.000			20.703			-4.141
1804.000			20.673			-4.135
1904.000			20.645			-4.129
2005.000			20.590			-4.118
2104.000			20.565			-4.113
2204.000			20.542			-4.108
2305.000			20.519			-4.104
2403.000			20.497			-4.099
2504.000			20.475			-4.095
2605.000			20.454			-4.091
2704.000			20.416			-4.083
2804.000			20.398			-4.080
2904.000			20.380			-4.076
3004.000			20.362			-4.072
3104.000			20.345			-4.069
3205.000			20.329			-4.066
3304.000			20.313			-4.063
3404.000			20.284			-4.057
3505.000			20.268			-4.054
3603.000			20.254			-4.051
3704.000			20.240			-4.048
3805.000			20.226			-4.045
3904.000			20.213			-4.043
4004.000			20.201			-4.040
4104.000			20.189			-4.038
4204.000			20.163			-4.033
4304.000			20.152			-4.030
4405.000			20.141			-4.028
4504.000			20.129			-4.026
4604.000			20.118			-4.024
4705.000			20.107			-4.021
4803.000			20.096			-4.019
4905.000			20.076			-4.015
5004.000			20.066			-4.013
5104.000			20.055			-4.011
5205.000			20.046			-4.009
5303.000			20.036			-4.007
5404.000			20.027			-4.005
5505.000			20.017			-4.003
5604.000			19.999			-4.000
5704.000			19.991			-3.998
5805.000			19.983			-3.997
5904.000			19.974			-3.995
6003.000			19.965			-3.993
6105.000			19.957			-3.991
6204.000			19.949			-3.990
6304.000			19.932			-3.986
6405.000			19.925			-3.985
6504.000			19.917			-3.983
6604.000			19.909			-3.982
6704.000			19.903			-3.981
6804.000			19.895			-3.979
6904.000			19.888			-3.978
7005.000			19.880			-3.976
7104.000			19.866			-3.973
7203.000			19.860			-3.972
7305.000			19.852			-3.970
7404.000			19.845			-3.969
7504.000			19.840			-3.968
7605.000			19.833			-3.967
7704.000			19.827			-3.965
7804.000			19.814			-3.963
7903.000			19.808			-3.962
8004.000			19.801			-3.960
8105.000			19.795			-3.959
8204.000			19.789			-3.958
8304.000			19.783			-3.957
8405.000			19.776			-3.955
8504.000			19.765			-3.953
8603.000			19.760			-3.952
8705.000			19.754			-3.951
8804.000			19.749			-3.950
8904.000			19.743			-3.949
9005.000			19.737			-3.947
9104.000			19.732			-3.946
9204.000			19.726			-3.945
9304.000			19.716			-3.943
9404.000			19.711			-3.942
9504.000			19.706			-3.941
9605.000			19.701			-3.940
9704.000			19.697			-3.939
9804.000			19.691			-3.938
9905.000			19.685			-3.937
10003.000			19.678			-3.936
10104.000			19.672			-3.934
10205.000			19.666			-3.933
10304.000			19.660			-3.932
10404.000			19.656			-3.931
10505.000			19.652			-3.930
10604.000			19.648			-3.930
10703.000			19.639			-3.928
10805.000			19.634			-3.927
10904.000			19.628			-3.926
11004.000			19.625			-3.925
11105.000			19.621			-3.924
11204.000			19.616			-3.923
11305.000			19.612			-3.922
11403.000			19.608			-3.922
11504.000			19.599			-3.920
11605.000			19.596			-3.919
11704.000			19.591			-3.918
11804.000			19.586			-3.917
11905.000			19.583			-3.917
12004.000			19.579			-3.916
12103.000			19.575			-3.915
12205.000			19.566			-3.913
12304.000			19.562			-3.912
12404.000			19.559			-3.912
12505.000			19.556			-3.911
12604.000			19.552			-3.910
12704.000			19.547			-3.909
12804.000			19.543			-3.909
12904.000			19.536			-3.907
13004.000			19.531			-3.906
13105.000			19.527			-3.905
13204.000			19.524			-3.905
13304.000			19.523			-3.905
13405.000			19.519			-3.904
13503.000			19.514			-3.903
13604.000			19.507			-3.901
13705.000			19.504			-3.901
13804.000			19.500			-3.900
13904.000			19.496			-3.899
14004.000			19.493			-3.899
14104.000			19.491			-3.898
14203.000			19.487			-3.897
14305.000			19.483			-3.897
14404.000			19.476			-3.895
14505.000			19.474			-3.895
14604.000			19.470			-3.894
14704.000			19.466			-3.893
14805.000			19.462			-3.892
14903.000			19.459			-3.892
15004.000			19.456			-3.891
15105.000			19.449			-3.890
15204.000			19.446			-3.889
15304.000			19.444			-3.889
15405.000			19.441			-3.888
15504.000			19.438			-3.888
15603.000			19.434			-3.887
15705.000			19.432			-3.886
15804.000			19.425			-3.885
15904.000			19.422			-3.884
16005.000			19.419			-3.884
16104.000			19.416			-3.883
16204.000			19.414			-3.883
16304.000			19.411			-3.882
16404.000			19.407			-3.881
16504.000			19.401			-3.880
16605.000			19.398			-3.880
16704.000			19.396			-3.879
16804.000			19.394			-3.879
16905.000			19.390			-3.878
17003.000			19.386			-3.877
17104.000			19.384			-3.877
17205.000			19.381			-3.876
17304.000			19.375			-3.875
17404.000			19.373			-3.875
17504.000			19.370			-3.874
17604.000			19.367			-3.873
17704.000			19.365			-3.873
17804.000			19.363			-3.873
17904.000			19.360			-3.872
18005.000			19.353			-3.871
18104.000			19.351			-3.870
18204.000			19.348			-3.870
18305.000			19.346			-3.869
18403.000			19.345			-3.869
18504.000			19.341			-3.868
18605.000			19.337			-3.867
18704.000			19.333			-3.867
18804.000			19.330			-3.866
18905.000			19.329			-3.866
19004.000			19.326			-3.865
19103.000			19.324			-3.865
19205.000			19.322			-3.864
19304.000			19.318			-3.864
19404.000			19.315			-3.863
19505.000			19.310			-3.862
19604.000			19.307			-3.861
19704.000			19.305			-3.861
19804.000			19.303			-3.861
19904.000			19.301			-3.860
20004.000			19.299			-3.860
20105.000			19.296			-3.859
20204.000			19.292			-3.858
20303.000			19.290			-3.858
20405.000			19.287			-3.857
20504.000			19.284			-3.857
20604.000			19.282			-3.856
20705.000			19.280			-3.856
20804.000			19.277			-3.855
20905.000			19.273			-3.855
21003.000			19.270			-3.854
21104.000			19.269			-3.854
21205.000			19.267			-3.853
21304.000			19.264			-3.853
21404.000			19.263			-3.853
21505.000			19.261			-3.852
21604.000			19.255			-3.851
21703.000			19.253			-3.851
21805.000			19.251			-3.850
21904.000			19.249			-3.850
22004.000			19.247			-3.849
22105.000			19.245			-3.849
22204.000			19.243			-3.849
22304.000			19.241			-3.848
22404.000			19.235			-3.847
22504.000			19.233			-3.847
22604.000			19.231			-3.846
22705.000			19.229			-3.846
22804.000			19.228			-3.846
22904.000			19.227			-3.845
23005.000			19.224			-3.845
23103.000			19.219			-3.844
23204.000			19.217			-3.843
23305.000			19.215			-3.843
23404.000			19.214			-3.843
23504.000			19.211			-3.842
23604.000			19.209			-3.842
23704.000			19.208			-3.842
23803.000			19.203			-3.841
23905.000			19.203			-3.841
24004.000			19.200			-3.840
24105.000			19.196			-3.839
24204.000			19.195			-3.839
24304.000			19.193			-3.839
24405.000			19.191			-3.838
24503.000			19.189			-3.838
24604.000			19.186			-3.837
24705.000			19.183			-3.837
24804.000			19.182			-3.836
24904.000			19.180			-3.836
25005.000			19.178			-3.836
25104.000			19.176			-3.835
25203.000			19.173			-3.835
25305.000			19.171			-3.834
25404.000			19.169			-3.834
25504.000			19.167			-3.833
25605.000			19.165			-3.833
25704.000			19.163			-3.833
25804.000			19.161			-3.832
25904.000			19.159			-3.832
26004.000			19.155			-3.831
26104.000			19.153			-3.831
26205.000			19.152			-3.830
26304.000			19.151			-3.830
26403.000			19.149			-3.830
26505.000			19.147			-3.829
26604.000			19.145			-3.829
26704.000			19.143			-3.829
26805.000			19.140			-3.828
26904.000			19.139			-3.828
27004.000			19.137			-3.827
27103.000			19.135			-3.827
27204.000			19.134			-3.827
27305.000			19.132			-3.826
27404.000			19.130			-3.826
27504.000			19.126			-3.825
27605.000			19.126			-3.825
27704.000			19.123			-3.825
27803.000			19.121			-3.824
27905.000			19.119			-3.824
28004.000			19.118			-3.824
28104.000			19.116			-3.823
28205.000			19.113			-3.823
28304.000			19.111			-3.822
28404.000			19.109			-3.822
28504.000			19.107			-3.821
28604.000			19.105			-3.821
28704.000			19.103			-3.821
28805.000			19.103			-3.821
28904.000			19.099			-3.820
29004.000			19.098			-3.820
29105.000			19.097			-3.819
29203.000			19.094			-3.819
29304.000			19.092			-3.818
29405.000			19.091			-3.818
29504.000			19.090			-3.818
29604.000			19.089			-3.818
29705.000			19.084			-3.817
29804.000			19.083			-3.817
29903.000			19.082			-3.816
30005.000			19.081			-3.816
30104.000			19.079			-3.816
30204.000			19.078			-3.816
30305.000			19.076			-3.815
30404.000			19.072			-3.814
30505.000			19.071			-3.814
30603.000			19.069			-3.814
30704.000			19.067			-3.813
30805.000			19.065			-3.813
30904.000			19.065			-3.813
31004.000			19.064			-3.813
31105.000			19.060			-3.812
31204.000			19.059			-3.812
31303.000			19.058			-3.812
31405.000			19.056			-3.811
31504.000			19.054			-3.811
31604.000			19.053			-3.811
31705.000			19.052			-3.810
31804.000			19.051			-3.810
31904.000			19.047			-3.809
32004.000			19.045			-3.809
32104.000			19.045			-3.809
32204.000			19.043			-3.809
32305.000			19.041			-3.808
32404.000			19.040			-3.808
32503.000			19.039			-3.808
32605.000			19.036			-3.807
32704.000			19.034			-3.807
32804.000			19.033			-3.807
32905.000			19.032			-3.806
33004.000			19.030			-3.806
33104.000			19.028			-3.806
33204.000			19.026			-3.805
33304.000			19.024			-3.805
33404.000			19.024			-3.805
33504.000			19.022			-3.804
33604.000			19.019			-3.804
33705.000			19.018			-3.804
33804.000			19.017			-3.803
33903.000			19.015			-3.803
34005.000			19.013			-3.803
34104.000			19.011			-3.802
34204.000			19.010			-3.802
34305.000			19.009			-3.802
34404.000			19.007			-3.801
34504.000			19.006			-3.801
34604.000			19.005			-3.801
34704.000			19.003			-3.801
34804.000			19.001			-3.800
34905.000			18.999			-3.800
35004.000			18.996			-3.799
35104.000			18.996			-3.799
35205.000			18.995			-3.799
35303.000			18.994			-3.799
35404.000			18.993			-3.799
35505.000			18.990			-3.798
35604.000			18.989			-3.798
35704.000			18.988			-3.798
35805.000			18.986			-3.797
35904.000			18.985			-3.797
36003.000			18.984			-3.797
36105.000			18.982			-3.796
36204.000			18.980			-3.796
36304.000			18.979			-3.796
36405.000			18.977			-3.795
36504.000			18.975			-3.795
36604.000			18.975			-3.795
36703.000			18.973			-3.795
36804.000			18.971			-3.794
36905.000			18.970			-3.794
37004.000			18.969			-3.794
37104.000			18.966			-3.793
37205.000			18.965			-3.793
37304.000			18.963			-3.793
37403.000			18.963			-3.793
37505.000			18.962			-3.792
37604.000			18.961			-3.792
37704.000			18.958			-3.792
37805.000			18.957			-3.791
37904.000			18.956			-3.791
38004.000			18.954			-3.791
38104.000			18.952			-3.790
38204.000			18.951			-3.790
38303.000			18.951			-3.790
38405.000			18.949			-3.790
38504.000			18.947			-3.789
38604.000			18.946			-3.789
38705.000			18.945			-3.789
38804.000			18.944			-3.789
38904.000			18.942			-3.788
39004.000			18.941			-3.788
39104.000			18.939			-3.788
39204.000			18.938			-3.788
39305.000			18.937			-3.787
39404.000			18.935			-3.787
39504.000			18.934			-3.787
39605.000			18.933			-3.787
39703.000			18.932			-3.786
39804.000			18.931			-3.786
39905.000			18.928			-3.786
40004.000			18.927			-3.785
40105.000			18.926			-3.785
40204.000			18.925			-3.785
40304.000			18.923			-3.785
40404.000			18.921			-3.784
40504.000			18.921			-3.784
40604.000			18.918			-3.784
40705.000			18.917			-3.783
40804.000			18.916			-3.783
40904.000			18.915			-3.783
41005.000			18.914			-3.783
41103.000			18.912			-3.782
41204.000			18.911			-3.782
41305.000			18.909			-3.782
41404.000			18.909			-3.782
41504.000			18.908			-3.782
41604.000			18.906			-3.781
41704.000			18.904			-3.781
41803.000			18.904			-3.781
41905.000			18.902			-3.780
42004.000			18.901			-3.780
42104.000			18.899			-3.780
42205.000			18.898			-3.780
42303.000			18.897			-3.779
42404.000			18.896			-3.779
42505.000			18.895			-3.779
42604.000			18.893			-3.779
42704.000			18.892			-3.778
42805.000			18.891			-3.778
42904.000			18.889			-3.778
43004.000			18.887			-3.777
43105.000			18.887			-3.777
43203.000			18.887			-3.777
43305.000			18.886			-3.777
43404.000			18.884			-3.777
43504.000			18.882			-3.776
43605.000			18.880			-3.776
43704.000			18.879			-3.776
43804.000			18.878			-3.776
43904.000			18.877			-3.775
44004.000			18.876			-3.775
44104.000			18.875			-3.775
44205.000			18.875			-3.775
44304.000			18.872			-3.774
44404.000			18.872			-3.774
44505.000			18.870			-3.774
44603.000			18.868			-3.774
44704.000			18.867			-3.773
44805.000			18.867			-3.773
44904.000			18.866			-3.773
45004.000			18.864			-3.773
45105.000			18.863			-3.773
45204.000			18.862			-3.772
45303.000			18.860			-3.772
45405.000			18.859			-3.772
45504.000			18.859			-3.772
45604.000			18.858			-3.772
45705.000			18.855			-3.771
45804.000			18.853			-3.771
45904.000			18.854			-3.771
46004.000			18.854			-3.771
46104.000			18.850			-3.770
46204.000			18.849			-3.770
46304.000			18.849			-3.770
46404.000			18.849			-3.770
46505.000			18.846			-3.769
46604.000			18.845			-3.769
46703.000			18.843			-3.769
46805.000			18.843			-3.769
46904.000			18.843			-3.769
47004.000			18.842			-3.768
47105.000			18.840			-3.768
47204.000			18.838			-3.768
47304.000			18.838			-3.768
47404.000			18.836			-3.767
47504.000			18.835			-3.767
47604.000			18.835			-3.767
47705.000			18.834			-3.767
47804.000			18.832			-3.766
47904.000			18.829			-3.766
48005.000			18.829			-3.766
48103.000			18.829			-3.766
48204.000			18.828			-3.766
48305.000			18.827			-3.765
48404.000			18.825			-3.765
48504.000			18.824			-3.765
48605.000			18.823			-3.765
48704.000			18.822			-3.764
48804.000			18.820			-3.764
48905.000			18.819			-3.764
49003.000			18.819			-3.764
49104.000			18.818			-3.764
49205.000			18.817			-3.763
49304.000			18.816			-3.763
49404.000			18.814			-3.763
49504.000			18.814			-3.763
49604.000			18.813			-3.763
49704.000			18.811			-3.762
49804.000			18.810			-3.762
49904.000			18.809			-3.762
50005.000			18.808			-3.762
50104.000			18.806			-3.761
50204.000			18.805			-3.761
50305.000			18.804			-3.761
50403.000			18.804			-3.761
50504.000			18.802			-3.760
50605.000			18.801			-3.760
50704.000			18.802			-3.760
50804.000			18.801			-3.760
50905.000			18.799			-3.760
51004.000			18.797			-3.759
51103.000			18.795			-3.759
51205.000			18.794			-3.759
51304.000			18.793			-3.759
51404.000			18.793			-3.759
51505.000			18.793			-3.759
51604.000			18.791			-3.758
51704.000			18.790			-3.758
51804.000			18.789			-3.758
51904.000			18.789			-3.758
52004.000			18.788			-3.758
52105.000			18.787			-3.757
52204.000			18.785			-3.757
52304.000			18.784			-3.757
52405.000			18.783			-3.757
52503.000			18.782			-3.756
52604.000			18.781			-3.756
52705.000			18.780			-3.756
52804.000			18.779			-3.756
52905.000			18.778			-3.756
53004.000			18.775			-3.755
53104.000			18.775			-3.755
53204.000			18.775			-3.755
53304.000			18.774			-3.755
53404.000			18.773			-3.755
53505.000			18.773			-3.755
53604.000			18.772			-3.754
53704.000			18.772			-3.754
53805.000			18.769			-3.754
53903.000			18.768			-3.754
54004.000			18.767			-3.753
54105.000			18.767			-3.753
54204.000			18.766			-3.753
54304.000			18.765			-3.753
54405.000			18.763			-3.753
54504.000			18.762			-3.752
54603.000			18.761			-3.752
54705.000			18.761			-3.752
54804.000			18.759			-3.752
54904.000			18.758			-3.752
55005.000			18.758			-3.752
55104.000			18.758			-3.752
55204.000			18.754			-3.751
55304.000			18.754			-3.751
55404.000			18.753			-3.751
55504.000			18.752			-3.750
55605.000			18.751			-3.750
55704.000			18.750			-3.750
55804.000			18.749			-3.750
55905.000			18.749			-3.750
56003.000			18.748			-3.750
56105.000			18.747			-3.749
56204.000			18.746			-3.749
56304.000			18.745			-3.749
56405.000			18.745			-3.749
56504.000			18.744			-3.749
56604.000			18.743			-3.749
56704.000			18.742			-3.748
56804.000			18.742			-3.748
56904.000			18.740			-3.748
57005.000			18.739			-3.748
57104.000			18.738			-3.748
57204.000			18.737			-3.747
57305.000			18.736			-3.747
57403.000			18.735			-3.747
57504.000			18.735			-3.747
57605.000			18.733			-3.747
57704.000			18.732			-3.746
57804.000			18.732			-3.746
57905.000			18.731			-3.746
58004.000			18.730			-3.746
58103.000			18.728			-3.746
58205.000			18.728			-3.746
58303.000			18.727			-3.745
58404.000			18.726			-3.745
58505.000			18.725			-3.745
58604.000			18.723			-3.745
58704.000			18.722			-3.744
58805.000			18.722			-3.744
58904.000			18.720			-3.744
59003.000			18.720			-3.744
59105.000			18.720			-3.744
59204.000			18.719			-3.744
59305.000			18.718			-3.744
59404.000			18.717			-3.743
59504.000			18.716			-3.743
59605.000			18.716			-3.743
59703.000			18.715			-3.743
59804.000			18.715			-3.743
59905.000			18.714			-3.743
60004.000			18.712			-3.742
60104.000			18.711			-3.742
60205.000			18.710			-3.742
60304.000			18.709			-3.742
60403.000			18.708			-3.742
60505.000			18.707			-3.741
60604.000			18.706			-3.741
60704.000			18.706			-3.741
60805.000			18.706			-3.741
60904.000			18.705			-3.741
61004.000			18.704			-3.741
61104.000			18.701			-3.740
61204.000			18.700			-3.740
61304.000			18.700			-3.740
61405.000			18.699			-3.740
61504.000			18.699			-3.740
61604.000			18.698			-3.740
61705.000			18.697			-3.739
61803.000			18.697			-3.739
61904.000			18.696			-3.739
62005.000			18.695			-3.739
62104.000			18.694			-3.739
62204.000			18.693			-3.739
62304.000			18.692			-3.738
62404.000			18.691			-3.738
62504.000			18.691			-3.738
62604.000			18.690			-3.738
62704.000			18.689			-3.738
62805.000			18.688			-3.738
62904.000			18.687			-3.737
63004.000			18.686			-3.737
63105.000			18.686			-3.737
63203.000			18.686			-3.737
63304.000			18.682			-3.736
63405.000			18.683			-3.737
63504.000			18.683			-3.737
63604.000			18.681			-3.736
63705.000			18.680			-3.736
63804.000			18.681			-3.736
63903.000			18.679			-3.736
64005.000			18.678			-3.736
64104.000			18.677			-3.735
64204.000			18.676			-3.735
64305.000			18.675			-3.735
64404.000			18.674			-3.735
64504.000			18.672			-3.734
64604.000			18.672			-3.734
64704.000			18.672			-3.734
64804.000			18.672			-3.734
64905.000			18.671			-3.734
65004.000			18.670			-3.734
65104.000			18.669			-3.734
65205.000			18.668			-3.734
65303.000			18.667			-3.733
65404.000			18.666			-3.733
65505.000			18.666			-3.733
65604.000			18.665			-3.733
65705.000			18.663			-3.733
65804.000			18.664			-3.733
65904.000			18.662			-3.732
66004.000			18.661			-3.732
66104.000			18.662			-3.732
66203.000			18.659			-3.732
66305.000			18.659			-3.732
66404.000			18.659			-3.732
66504.000			18.658			-3.732
66605.000			18.657			-3.731
66704.000			18.658			-3.732
66804.000			18.657			-3.731
66904.000			18.654			-3.731
67004.000			18.653			-3.731
67104.000			18.654			-3.731
67205.000			18.652			-3.730
67304.000			18.652			-3.730
67404.000			18.651			-3.730
67505.000			18.650			-3.730
67603.000			18.649			-3.730
67704.000			18.648			-3.730
67805.000			18.647			-3.729
67904.000			18.647			-3.729
68004.000			18.646			-3.729
68105.000			18.645			-3.729
68204.000			18.645			-3.729
68303.000			18.643			-3.729
68405.000			18.642			-3.728
68504.000			18.642			-3.728
68604.000			18.641			-3.728
68705.000			18.640			-3.728
68804.000			18.640			-3.728
68905.000			18.639			-3.728
69003.000			18.639			-3.728
69104.000			18.638			-3.728
69205.000			18.637			-3.727
69304.000			18.637			-3.727
69404.000			18.636			-3.727
69505.000			18.635			-3.727
69604.000			18.634			-3.727
69703.000			18.633			-3.727
69805.000			18.632			-3.726
69903.000			18.630			-3.726
70004.000			18.630			-3.726
70105.000			18.630			-3.726
70204.000			18.630			-3.726
70304.000			18.628			-3.726
70404.000			18.627			-3.725
70504.000			18.626			-3.725
70603.000			18.626			-3.725
70705.000			18.626			-3.725
70804.000			18.625			-3.725
70904.000			18.623			-3.725
71005.000			18.624			-3.725
71103.000			18.623			-3.725
71204.000			18.622			-3.724
