# Acquired on 10/01/2024 13:54:37 
# SPIDER: Creep_5mm_07714532C-1
# CREEP MEASUREMENT

# time [ms]		force [N]		stiffness [N/mm]
0.000			-5.957			-1.191
100.000			-6.551			-1.310
200.000			-6.903			-1.381
302.000			-6.872			-1.374
400.000			-6.840			-1.368
500.000			-6.816			-1.363
601.000			-6.798			-1.360
700.000			-6.781			-1.356
800.000			-6.766			-1.353
901.000			-6.740			-1.348
1001.000			-6.730			-1.346
1100.000			-6.719			-1.344
1201.000			-6.709			-1.342
1300.000			-6.702			-1.340
1400.000			-6.693			-1.339
1501.000			-6.685			-1.337
1600.000			-6.678			-1.336
1702.000			-6.665			-1.333
1801.000			-6.658			-1.332
1900.000			-6.653			-1.331
2001.000			-6.647			-1.329
2100.000			-6.641			-1.328
2200.000			-6.635			-1.327
2301.000			-6.630			-1.326
2400.000			-6.621			-1.324
2501.000			-6.617			-1.323
2602.000			-6.613			-1.323
2700.000			-6.609			-1.322
2800.000			-6.603			-1.321
2901.000			-6.600			-1.320
3000.000			-6.596			-1.319
3100.000			-6.588			-1.318
3202.000			-6.585			-1.317
3301.000			-6.581			-1.316
3400.000			-6.579			-1.316
3501.000			-6.575			-1.315
3600.000			-6.571			-1.314
3700.000			-6.568			-1.314
3801.000			-6.562			-1.312
3900.000			-6.559			-1.312
4001.000			-6.557			-1.311
4102.000			-6.555			-1.311
4200.000			-6.552			-1.310
4300.000			-6.549			-1.310
4401.000			-6.546			-1.309
4500.000			-6.542			-1.308
4600.000			-6.538			-1.308
4701.000			-6.534			-1.307
4801.000			-6.531			-1.306
4900.000			-6.529			-1.306
5000.000			-6.527			-1.305
5100.000			-6.525			-1.305
5201.000			-6.523			-1.305
5300.000			-6.518			-1.304
5400.000			-6.516			-1.303
5502.000			-6.514			-1.303
5601.000			-6.512			-1.302
5700.000			-6.509			-1.302
5801.000			-6.507			-1.301
5900.000			-6.505			-1.301
6000.000			-6.502			-1.300
6101.000			-6.500			-1.300
6201.000			-6.498			-1.300
6301.000			-6.496			-1.299
6401.000			-6.494			-1.299
6500.000			-6.491			-1.298
6600.000			-6.490			-1.298
6701.000			-6.488			-1.298
6800.000			-6.485			-1.297
6900.000			-6.484			-1.297
7001.000			-6.483			-1.297
7101.000			-6.482			-1.296
7201.000			-6.480			-1.296
7301.000			-6.479			-1.296
7400.000			-6.476			-1.295
7500.000			-6.473			-1.295
7601.000			-6.472			-1.294
7700.000			-6.469			-1.294
7800.000			-6.468			-1.294
7902.000			-6.468			-1.294
8001.000			-6.465			-1.293
8100.000			-6.463			-1.293
8200.000			-6.462			-1.292
8300.000			-6.460			-1.292
8401.000			-6.459			-1.292
8500.000			-6.458			-1.292
8601.000			-6.456			-1.291
8702.000			-6.455			-1.291
8800.000			-6.452			-1.290
8900.000			-6.450			-1.290
9001.000			-6.449			-1.290
9100.000			-6.448			-1.290
9200.000			-6.447			-1.289
9301.000			-6.446			-1.289
9401.000			-6.444			-1.289
9501.000			-6.442			-1.288
9601.000			-6.441			-1.288
9700.000			-6.439			-1.288
9800.000			-6.438			-1.288
9901.000			-6.437			-1.287
10000.000			-6.435			-1.287
10100.000			-6.434			-1.287
10202.000			-6.433			-1.287
10301.000			-6.432			-1.286
10400.000			-6.430			-1.286
10501.000			-6.428			-1.286
10600.000			-6.428			-1.286
10700.000			-6.427			-1.285
10801.000			-6.427			-1.285
10901.000			-6.425			-1.285
11001.000			-6.423			-1.285
11101.000			-6.422			-1.284
11200.000			-6.420			-1.284
11300.000			-6.419			-1.284
11400.000			-6.417			-1.283
11500.000			-6.416			-1.283
11601.000			-6.416			-1.283
11701.000			-6.415			-1.283
11801.000			-6.412			-1.282
11901.000			-6.412			-1.282
12000.000			-6.411			-1.282
12100.000			-6.410			-1.282
12201.000			-6.409			-1.282
12300.000			-6.408			-1.282
12400.000			-6.407			-1.281
12502.000			-6.406			-1.281
12601.000			-6.405			-1.281
12700.000			-6.404			-1.281
12801.000			-6.402			-1.280
12900.000			-6.401			-1.280
13000.000			-6.401			-1.280
13101.000			-6.399			-1.280
13201.000			-6.397			-1.279
13301.000			-6.395			-1.279
13401.000			-6.394			-1.279
13500.000			-6.393			-1.279
13600.000			-6.393			-1.279
13701.000			-6.392			-1.278
13800.000			-6.390			-1.278
13900.000			-6.390			-1.278
14002.000			-6.388			-1.278
14101.000			-6.387			-1.277
14200.000			-6.386			-1.277
14301.000			-6.384			-1.277
14400.000			-6.383			-1.277
14500.000			-6.383			-1.277
14600.000			-6.382			-1.276
14700.000			-6.382			-1.276
14802.000			-6.380			-1.276
14901.000			-6.378			-1.276
15000.000			-6.377			-1.275
15101.000			-6.377			-1.275
15200.000			-6.375			-1.275
15300.000			-6.374			-1.275
15401.000			-6.374			-1.275
15500.000			-6.373			-1.275
15601.000			-6.372			-1.274
15702.000			-6.371			-1.274
15800.000			-6.370			-1.274
15900.000			-6.368			-1.274
16001.000			-6.368			-1.274
16100.000			-6.368			-1.274
16200.000			-6.366			-1.273
16301.000			-6.366			-1.273
16401.000			-6.365			-1.273
16501.000			-6.364			-1.273
16601.000			-6.363			-1.273
16700.000			-6.362			-1.272
16800.000			-6.362			-1.272
16901.000			-6.360			-1.272
17000.000			-6.360			-1.272
17100.000			-6.359			-1.272
17202.000			-6.359			-1.272
17301.000			-6.358			-1.272
17400.000			-6.357			-1.271
17501.000			-6.357			-1.271
17600.000			-6.357			-1.271
17700.000			-6.355			-1.271
17800.000			-6.355			-1.271
17900.000			-6.354			-1.271
18002.000			-6.353			-1.271
18101.000			-6.353			-1.271
18200.000			-6.354			-1.271
18301.000			-6.353			-1.271
18400.000			-6.351			-1.270
18500.000			-6.350			-1.270
18601.000			-6.350			-1.270
18700.000			-6.350			-1.270
18801.000			-6.349			-1.270
18902.000			-6.348			-1.270
19001.000			-6.347			-1.269
19100.000			-6.346			-1.269
19201.000			-6.345			-1.269
19300.000			-6.345			-1.269
19400.000			-6.345			-1.269
19501.000			-6.343			-1.269
19601.000			-6.343			-1.269
19701.000			-6.345			-1.269
19801.000			-6.342			-1.268
19900.000			-6.343			-1.269
20000.000			-6.342			-1.268
20101.000			-6.341			-1.268
20200.000			-6.341			-1.268
20300.000			-6.339			-1.268
20402.000			-6.337			-1.267
20501.000			-6.337			-1.267
20600.000			-6.337			-1.267
20701.000			-6.337			-1.267
20800.000			-6.335			-1.267
20900.000			-6.335			-1.267
21000.000			-6.335			-1.267
21100.000			-6.334			-1.267
21202.000			-6.333			-1.267
21301.000			-6.332			-1.266
21400.000			-6.331			-1.266
21501.000			-6.330			-1.266
21600.000			-6.330			-1.266
21700.000			-6.329			-1.266
21801.000			-6.328			-1.266
21901.000			-6.328			-1.266
22001.000			-6.328			-1.266
22101.000			-6.327			-1.265
22200.000			-6.326			-1.265
22300.000			-6.325			-1.265
22401.000			-6.325			-1.265
22500.000			-6.325			-1.265
22600.000			-6.325			-1.265
22702.000			-6.323			-1.265
22801.000			-6.321			-1.264
22900.000			-6.321			-1.264
23001.000			-6.322			-1.264
23100.000			-6.321			-1.264
23200.000			-6.321			-1.264
23301.000			-6.321			-1.264
23400.000			-6.319			-1.264
23501.000			-6.319			-1.264
23602.000			-6.318			-1.264
23700.000			-6.318			-1.264
23800.000			-6.318			-1.264
23901.000			-6.316			-1.263
24000.000			-6.316			-1.263
24100.000			-6.315			-1.263
24200.000			-6.314			-1.263
24301.000			-6.313			-1.263
24402.000			-6.314			-1.263
24500.000			-6.313			-1.263
24600.000			-6.312			-1.262
24701.000			-6.312			-1.262
24800.000			-6.312			-1.262
24900.000			-6.310			-1.262
25002.000			-6.309			-1.262
25101.000			-6.309			-1.262
25200.000			-6.308			-1.262
25301.000			-6.308			-1.262
25400.000			-6.307			-1.261
25500.000			-6.307			-1.261
25601.000			-6.306			-1.261
25700.000			-6.305			-1.261
25801.000			-6.304			-1.261
25902.000			-6.303			-1.261
26000.000			-6.304			-1.261
26100.000			-6.302			-1.260
26201.000			-6.301			-1.260
26300.000			-6.301			-1.260
26400.000			-6.302			-1.260
26501.000			-6.301			-1.260
26601.000			-6.300			-1.260
26701.000			-6.299			-1.260
26801.000			-6.299			-1.260
26900.000			-6.300			-1.260
27000.000			-6.300			-1.260
27101.000			-6.297			-1.259
27200.000			-6.297			-1.259
27300.000			-6.297			-1.259
27402.000			-6.296			-1.259
27501.000			-6.296			-1.259
27601.000			-6.295			-1.259
27700.000			-6.295			-1.259
27800.000			-6.294			-1.259
27901.000			-6.294			-1.259
28000.000			-6.294			-1.259
28100.000			-6.293			-1.259
28202.000			-6.293			-1.259
28301.000			-6.292			-1.258
28400.000			-6.292			-1.258
28501.000			-6.291			-1.258
28600.000			-6.291			-1.258
28700.000			-6.290			-1.258
28801.000			-6.290			-1.258
28900.000			-6.290			-1.258
29001.000			-6.290			-1.258
29102.000			-6.290			-1.258
29200.000			-6.289			-1.258
29300.000			-6.288			-1.258
29401.000			-6.287			-1.257
29500.000			-6.286			-1.257
29600.000			-6.287			-1.257
29701.000			-6.287			-1.257
29801.000			-6.286			-1.257
29901.000			-6.285			-1.257
30001.000			-6.283			-1.257
30100.000			-6.283			-1.257
30200.000			-6.284			-1.257
30301.000			-6.284			-1.257
30400.000			-6.282			-1.256
30500.000			-6.282			-1.256
30602.000			-6.281			-1.256
30701.000			-6.282			-1.256
30801.000			-6.281			-1.256
30900.000			-6.280			-1.256
31000.000			-6.279			-1.256
31101.000			-6.279			-1.256
31200.000			-6.278			-1.256
31300.000			-6.279			-1.256
31402.000			-6.278			-1.256
31501.000			-6.278			-1.256
31600.000			-6.277			-1.255
31701.000			-6.276			-1.255
31800.000			-6.276			-1.255
31900.000			-6.276			-1.255
32001.000			-6.276			-1.255
32100.000			-6.275			-1.255
32201.000			-6.274			-1.255
32302.000			-6.274			-1.255
32400.000			-6.273			-1.255
32500.000			-6.273			-1.255
32601.000			-6.273			-1.255
32700.000			-6.273			-1.255
32800.000			-6.272			-1.254
32902.000			-6.270			-1.254
33001.000			-6.271			-1.254
33101.000			-6.272			-1.254
33201.000			-6.271			-1.254
33300.000			-6.269			-1.254
33400.000			-6.269			-1.254
33501.000			-6.269			-1.254
33600.000			-6.268			-1.254
33700.000			-6.268			-1.254
33802.000			-6.269			-1.254
33901.000			-6.268			-1.254
34001.000			-6.267			-1.253
34100.000			-6.267			-1.253
34200.000			-6.266			-1.253
34301.000			-6.265			-1.253
34400.000			-6.264			-1.253
34500.000			-6.263			-1.253
34602.000			-6.263			-1.253
34701.000			-6.263			-1.253
34800.000			-6.263			-1.253
34901.000			-6.261			-1.252
35000.000			-6.261			-1.252
35100.000			-6.261			-1.252
35201.000			-6.260			-1.252
35301.000			-6.259			-1.252
35401.000			-6.259			-1.252
35501.000			-6.258			-1.252
35600.000			-6.258			-1.252
35700.000			-6.259			-1.252
35801.000			-6.256			-1.251
35900.000			-6.255			-1.251
36000.000			-6.256			-1.251
36102.000			-6.256			-1.251
36201.000			-6.254			-1.251
36300.000			-6.254			-1.251
36401.000			-6.255			-1.251
36500.000			-6.255			-1.251
36600.000			-6.254			-1.251
36701.000			-6.253			-1.251
36800.000			-6.252			-1.250
36902.000			-6.252			-1.250
37001.000			-6.252			-1.250
37100.000			-6.252			-1.250
37201.000			-6.251			-1.250
37300.000			-6.251			-1.250
37400.000			-6.250			-1.250
37501.000			-6.251			-1.250
37600.000			-6.251			-1.250
37701.000			-6.251			-1.250
37802.000			-6.250			-1.250
37900.000			-6.249			-1.250
38000.000			-6.249			-1.250
38101.000			-6.250			-1.250
38200.000			-6.249			-1.250
38300.000			-6.248			-1.250
38401.000			-6.247			-1.249
38501.000			-6.247			-1.249
38601.000			-6.248			-1.250
38701.000			-6.247			-1.249
38800.000			-6.246			-1.249
38900.000			-6.246			-1.249
39001.000			-6.245			-1.249
39100.000			-6.246			-1.249
39200.000			-6.245			-1.249
39302.000			-6.245			-1.249
39401.000			-6.244			-1.249
39500.000			-6.244			-1.249
39601.000			-6.243			-1.249
39700.000			-6.242			-1.248
39800.000			-6.242			-1.248
39901.000			-6.241			-1.248
40000.000			-6.242			-1.248
40102.000			-6.242			-1.248
40201.000			-6.241			-1.248
40300.000			-6.240			-1.248
40401.000			-6.241			-1.248
40500.000			-6.240			-1.248
40600.000			-6.240			-1.248
40701.000			-6.239			-1.248
40801.000			-6.239			-1.248
40901.000			-6.239			-1.248
41001.000			-6.239			-1.248
41100.000			-6.238			-1.248
41200.000			-6.237			-1.247
41301.000			-6.236			-1.247
41400.000			-6.236			-1.247
41500.000			-6.235			-1.247
41602.000			-6.236			-1.247
41701.000			-6.235			-1.247
41800.000			-6.235			-1.247
41901.000			-6.235			-1.247
42000.000			-6.236			-1.247
42100.000			-6.235			-1.247
42201.000			-6.234			-1.247
42301.000			-6.233			-1.247
42401.000			-6.233			-1.247
42501.000			-6.233			-1.247
42600.000			-6.232			-1.246
42700.000			-6.233			-1.247
42801.000			-6.232			-1.246
42900.000			-6.232			-1.246
43000.000			-6.231			-1.246
43102.000			-6.232			-1.246
43201.000			-6.232			-1.246
43300.000			-6.230			-1.246
43400.000			-6.231			-1.246
43500.000			-6.231			-1.246
43601.000			-6.229			-1.246
43700.000			-6.230			-1.246
43800.000			-6.229			-1.246
43902.000			-6.228			-1.246
44001.000			-6.228			-1.246
44100.000			-6.228			-1.246
44201.000			-6.228			-1.246
44300.000			-6.228			-1.246
44400.000			-6.227			-1.245
44501.000			-6.227			-1.245
44600.000			-6.227			-1.245
44701.000			-6.227			-1.245
44802.000			-6.227			-1.245
44900.000			-6.227			-1.245
45000.000			-6.226			-1.245
45101.000			-6.226			-1.245
45200.000			-6.225			-1.245
45300.000			-6.225			-1.245
45402.000			-6.225			-1.245
45501.000			-6.224			-1.245
45600.000			-6.224			-1.245
45701.000			-6.224			-1.245
45800.000			-6.224			-1.245
45900.000			-6.225			-1.245
46001.000			-6.223			-1.245
46100.000			-6.224			-1.245
46201.000			-6.223			-1.245
46302.000			-6.222			-1.244
46400.000			-6.222			-1.244
46500.000			-6.222			-1.244
46600.000			-6.221			-1.244
46700.000			-6.221			-1.244
46801.000			-6.221			-1.244
46900.000			-6.220			-1.244
47001.000			-6.221			-1.244
47102.000			-6.221			-1.244
47200.000			-6.220			-1.244
47300.000			-6.220			-1.244
47401.000			-6.218			-1.244
47500.000			-6.218			-1.244
47600.000			-6.219			-1.244
47701.000			-6.219			-1.244
47801.000			-6.218			-1.244
47901.000			-6.219			-1.244
48001.000			-6.218			-1.244
48100.000			-6.217			-1.243
48200.000			-6.217			-1.243
48301.000			-6.218			-1.244
48400.000			-6.218			-1.244
48500.000			-6.217			-1.243
48602.000			-6.216			-1.243
48701.000			-6.215			-1.243
48800.000			-6.215			-1.243
48901.000			-6.215			-1.243
49000.000			-6.215			-1.243
49100.000			-6.214			-1.243
49201.000			-6.214			-1.243
49301.000			-6.214			-1.243
49401.000			-6.215			-1.243
49501.000			-6.214			-1.243
49600.000			-6.213			-1.243
49700.000			-6.214			-1.243
49800.000			-6.213			-1.243
49900.000			-6.213			-1.243
50001.000			-6.212			-1.242
50101.000			-6.213			-1.243
50201.000			-6.212			-1.242
50301.000			-6.211			-1.242
50400.000			-6.210			-1.242
50500.000			-6.211			-1.242
50601.000			-6.211			-1.242
50700.000			-6.211			-1.242
50800.000			-6.210			-1.242
50902.000			-6.210			-1.242
51001.000			-6.209			-1.242
51100.000			-6.209			-1.242
51201.000			-6.209			-1.242
51300.000			-6.208			-1.242
51400.000			-6.208			-1.242
51501.000			-6.208			-1.242
51601.000			-6.207			-1.241
51701.000			-6.208			-1.242
51801.000			-6.209			-1.242
51900.000			-6.208			-1.242
52000.000			-6.207			-1.241
52101.000			-6.206			-1.241
52200.000			-6.207			-1.241
52300.000			-6.207			-1.241
52402.000			-6.206			-1.241
52501.000			-6.205			-1.241
52600.000			-6.205			-1.241
52701.000			-6.205			-1.241
52800.000			-6.205			-1.241
52900.000			-6.204			-1.241
53000.000			-6.204			-1.241
53100.000			-6.204			-1.241
53202.000			-6.203			-1.241
53301.000			-6.203			-1.241
53400.000			-6.202			-1.240
53501.000			-6.202			-1.240
53600.000			-6.202			-1.240
53700.000			-6.201			-1.240
53801.000			-6.201			-1.240
53901.000			-6.200			-1.240
54001.000			-6.199			-1.240
54101.000			-6.200			-1.240
54200.000			-6.200			-1.240
54300.000			-6.200			-1.240
54401.000			-6.199			-1.240
54500.000			-6.199			-1.240
54600.000			-6.198			-1.240
54702.000			-6.197			-1.239
54801.000			-6.197			-1.239
54901.000			-6.196			-1.239
55001.000			-6.196			-1.239
55100.000			-6.195			-1.239
55200.000			-6.195			-1.239
55301.000			-6.196			-1.239
55400.000			-6.196			-1.239
55500.000			-6.194			-1.239
55602.000			-6.194			-1.239
55701.000			-6.194			-1.239
55800.000			-6.194			-1.239
55901.000			-6.194			-1.239
56000.000			-6.193			-1.239
56100.000			-6.191			-1.238
56200.000			-6.192			-1.238
56300.000			-6.192			-1.238
56402.000			-6.192			-1.238
56501.000			-6.192			-1.238
56600.000			-6.192			-1.238
56701.000			-6.191			-1.238
56800.000			-6.191			-1.238
56900.000			-6.191			-1.238
57001.000			-6.191			-1.238
57100.000			-6.191			-1.238
57201.000			-6.190			-1.238
57302.000			-6.189			-1.238
57400.000			-6.189			-1.238
57500.000			-6.190			-1.238
57601.000			-6.188			-1.238
57700.000			-6.189			-1.238
57800.000			-6.189			-1.238
57901.000			-6.189			-1.238
58001.000			-6.188			-1.238
58101.000			-6.188			-1.238
58201.000			-6.187			-1.237
58300.000			-6.188			-1.238
58400.000			-6.188			-1.238
58501.000			-6.188			-1.238
58600.000			-6.187			-1.237
58700.000			-6.186			-1.237
58802.000			-6.187			-1.237
58901.000			-6.188			-1.238
59000.000			-6.186			-1.237
59101.000			-6.187			-1.237
59200.000			-6.187			-1.237
59300.000			-6.187			-1.237
59400.000			-6.187			-1.237
59500.000			-6.187			-1.237
59602.000			-6.187			-1.237
59701.000			-6.187			-1.237
59800.000			-6.186			-1.237
59901.000			-6.185			-1.237
60000.000			-6.186			-1.237
60100.000			-6.186			-1.237
60201.000			-6.185			-1.237
60300.000			-6.183			-1.237
60401.000			-6.184			-1.237
60502.000			-6.185			-1.237
60600.000			-6.184			-1.237
60700.000			-6.183			-1.237
60801.000			-6.183			-1.237
60900.000			-6.183			-1.237
61000.000			-6.183			-1.237
61101.000			-6.183			-1.237
61201.000			-6.182			-1.236
61301.000			-6.183			-1.237
61401.000			-6.183			-1.237
61500.000			-6.182			-1.236
61600.000			-6.181			-1.236
61701.000			-6.181			-1.236
61800.000			-6.181			-1.236
61900.000			-6.181			-1.236
62002.000			-6.180			-1.236
62101.000			-6.180			-1.236
62200.000			-6.180			-1.236
62301.000			-6.179			-1.236
62400.000			-6.179			-1.236
62500.000			-6.179			-1.236
62600.000			-6.178			-1.236
62700.000			-6.179			-1.236
62802.000			-6.178			-1.236
62901.000			-6.177			-1.235
63000.000			-6.177			-1.235
63101.000			-6.177			-1.235
63200.000			-6.177			-1.235
63300.000			-6.177			-1.235
63401.000			-6.176			-1.235
63500.000			-6.176			-1.235
63601.000			-6.175			-1.235
63702.000			-6.174			-1.235
63800.000			-6.174			-1.235
63900.000			-6.174			-1.235
64001.000			-6.175			-1.235
64100.000			-6.174			-1.235
64200.000			-6.175			-1.235
64301.000			-6.175			-1.235
64401.000			-6.173			-1.235
64501.000			-6.172			-1.234
64601.000			-6.173			-1.235
64700.000			-6.172			-1.234
64800.000			-6.172			-1.234
64901.000			-6.173			-1.235
65000.000			-6.172			-1.234
65100.000			-6.173			-1.235
65202.000			-6.172			-1.234
65301.000			-6.172			-1.234
65400.000			-6.171			-1.234
65501.000			-6.171			-1.234
65600.000			-6.172			-1.234
65700.000			-6.171			-1.234
65800.000			-6.171			-1.234
65900.000			-6.172			-1.234
66002.000			-6.172			-1.234
66101.000			-6.172			-1.234
66200.000			-6.171			-1.234
66301.000			-6.168			-1.234
66400.000			-6.169			-1.234
66500.000			-6.169			-1.234
66601.000			-6.169			-1.234
66700.000			-6.170			-1.234
66801.000			-6.169			-1.234
66902.000			-6.169			-1.234
67000.000			-6.168			-1.234
67100.000			-6.169			-1.234
67201.000			-6.169			-1.234
67300.000			-6.169			-1.234
67400.000			-6.168			-1.234
67501.000			-6.168			-1.234
67601.000			-6.169			-1.234
67701.000			-6.167			-1.233
67801.000			-6.167			-1.233
67900.000			-6.165			-1.233
68000.000			-6.167			-1.233
68101.000			-6.168			-1.234
68200.000			-6.168			-1.234
68300.000			-6.166			-1.233
68402.000			-6.166			-1.233
68501.000			-6.166			-1.233
68601.000			-6.166			-1.233
68701.000			-6.166			-1.233
68800.000			-6.166			-1.233
68900.000			-6.164			-1.233
69000.000			-6.164			-1.233
69100.000			-6.165			-1.233
69201.000			-6.165			-1.233
69301.000			-6.165			-1.233
69401.000			-6.166			-1.233
69501.000			-6.165			-1.233
69600.000			-6.165			-1.233
69700.000			-6.165			-1.233
69801.000			-6.164			-1.233
69900.000			-6.164			-1.233
70000.000			-6.163			-1.233
70102.000			-6.163			-1.233
70201.000			-6.164			-1.233
70300.000			-6.164			-1.233
70401.000			-6.163			-1.233
70500.000			-6.163			-1.233
70600.000			-6.163			-1.233
70701.000			-6.163			-1.233
70800.000			-6.161			-1.232
70901.000			-6.161			-1.232
71002.000			-6.161			-1.232
71100.000			-6.161			-1.232
71200.000			-6.161			-1.232
