# Acquired on 19/12/2023 17:14:46 
# SPIDER: Creep_1mm_07714532C-2
# CREEP MEASUREMENT

# time [ms]		force [N]		stiffness [N/mm]
0.000			-1.121			-1.121
100.000			-1.850			-1.850
202.000			-2.186			-2.186
300.000			-2.252			-2.252
400.000			-2.246			-2.246
501.000			-2.233			-2.233
600.000			-2.229			-2.229
700.000			-2.225			-2.225
802.000			-2.222			-2.222
901.000			-2.218			-2.218
1000.000			-2.215			-2.215
1101.000			-2.213			-2.213
1200.000			-2.209			-2.209
1300.000			-2.207			-2.207
1401.000			-2.205			-2.205
1501.000			-2.203			-2.203
1601.000			-2.201			-2.201
1701.000			-2.201			-2.201
1800.000			-2.200			-2.200
1900.000			-2.197			-2.197
2000.000			-2.195			-2.195
2100.000			-2.193			-2.193
2201.000			-2.192			-2.192
2301.000			-2.191			-2.191
2401.000			-2.190			-2.190
2501.000			-2.188			-2.188
2600.000			-2.187			-2.187
2700.000			-2.186			-2.186
2801.000			-2.185			-2.185
2900.000			-2.184			-2.184
3000.000			-2.183			-2.183
3102.000			-2.182			-2.182
3201.000			-2.180			-2.180
3300.000			-2.180			-2.180
3401.000			-2.179			-2.179
3500.000			-2.177			-2.177
3600.000			-2.176			-2.176
3701.000			-2.176			-2.176
3801.000			-2.175			-2.175
3901.000			-2.175			-2.175
4001.000			-2.174			-2.174
4100.000			-2.173			-2.173
4200.000			-2.172			-2.172
4301.000			-2.171			-2.171
4400.000			-2.171			-2.171
4501.000			-2.171			-2.171
4602.000			-2.170			-2.170
4700.000			-2.169			-2.169
4800.000			-2.168			-2.168
4901.000			-2.167			-2.167
5000.000			-2.165			-2.165
5100.000			-2.166			-2.166
5200.000			-2.165			-2.165
5301.000			-2.164			-2.164
5402.000			-2.164			-2.164
5500.000			-2.164			-2.164
5600.000			-2.161			-2.161
5701.000			-2.160			-2.160
5800.000			-2.161			-2.161
5900.000			-2.160			-2.160
6002.000			-2.158			-2.158
6101.000			-2.159			-2.159
6200.000			-2.159			-2.159
6301.000			-2.159			-2.159
6400.000			-2.157			-2.157
6500.000			-2.158			-2.158
6601.000			-2.158			-2.158
6700.000			-2.157			-2.157
6801.000			-2.157			-2.157
6902.000			-2.156			-2.156
7000.000			-2.156			-2.156
7100.000			-2.154			-2.154
7201.000			-2.154			-2.154
7300.000			-2.154			-2.154
7400.000			-2.154			-2.154
7502.000			-2.153			-2.153
7601.000			-2.151			-2.151
7700.000			-2.151			-2.151
7801.000			-2.151			-2.151
7900.000			-2.151			-2.151
8000.000			-2.151			-2.151
8101.000			-2.151			-2.151
8201.000			-2.151			-2.151
8302.000			-2.149			-2.149
8400.000			-2.149			-2.149
8500.000			-2.149			-2.149
8601.000			-2.149			-2.149
8700.000			-2.147			-2.147
8800.000			-2.148			-2.148
8901.000			-2.148			-2.148
9001.000			-2.147			-2.147
9101.000			-2.147			-2.147
9201.000			-2.146			-2.146
9300.000			-2.146			-2.146
9400.000			-2.145			-2.145
9501.000			-2.146			-2.146
9600.000			-2.146			-2.146
9701.000			-2.145			-2.145
9802.000			-2.145			-2.145
9900.000			-2.144			-2.144
10000.000			-2.143			-2.143
10101.000			-2.143			-2.143
10200.000			-2.142			-2.142
10300.000			-2.142			-2.142
10401.000			-2.143			-2.143
10501.000			-2.143			-2.143
10601.000			-2.142			-2.142
10701.000			-2.141			-2.141
10800.000			-2.140			-2.140
10900.000			-2.140			-2.140
11001.000			-2.140			-2.140
11100.000			-2.140			-2.140
11201.000			-2.140			-2.140
11302.000			-2.138			-2.138
11400.000			-2.137			-2.137
11500.000			-2.138			-2.138
11600.000			-2.137			-2.137
11700.000			-2.137			-2.137
11801.000			-2.137			-2.137
11900.000			-2.137			-2.137
12001.000			-2.136			-2.136
12102.000			-2.136			-2.136
12200.000			-2.136			-2.136
12300.000			-2.135			-2.135
12401.000			-2.135			-2.135
12500.000			-2.134			-2.134
12600.000			-2.135			-2.135
12701.000			-2.134			-2.134
12801.000			-2.134			-2.134
12901.000			-2.134			-2.134
13001.000			-2.133			-2.133
13100.000			-2.133			-2.133
13200.000			-2.133			-2.133
13301.000			-2.132			-2.132
13400.000			-2.132			-2.132
13501.000			-2.133			-2.133
13602.000			-2.132			-2.132
13700.000			-2.131			-2.131
13800.000			-2.132			-2.132
13901.000			-2.131			-2.131
14000.000			-2.132			-2.132
14100.000			-2.131			-2.131
14202.000			-2.129			-2.129
14301.000			-2.129			-2.129
14401.000			-2.131			-2.131
14501.000			-2.130			-2.130
14600.000			-2.130			-2.130
14700.000			-2.129			-2.129
14800.000			-2.128			-2.128
14900.000			-2.128			-2.128
15002.000			-2.128			-2.128
15101.000			-2.128			-2.128
15200.000			-2.127			-2.127
15301.000			-2.127			-2.127
15400.000			-2.128			-2.128
15500.000			-2.127			-2.127
15601.000			-2.127			-2.127
15700.000			-2.127			-2.127
15801.000			-2.127			-2.127
15902.000			-2.127			-2.127
16000.000			-2.127			-2.127
16100.000			-2.127			-2.127
16201.000			-2.127			-2.127
16300.000			-2.126			-2.126
16400.000			-2.126			-2.126
16502.000			-2.125			-2.125
16601.000			-2.125			-2.125
16700.000			-2.125			-2.125
16801.000			-2.125			-2.125
16900.000			-2.124			-2.124
17000.000			-2.124			-2.124
17101.000			-2.124			-2.124
17200.000			-2.123			-2.123
17301.000			-2.123			-2.123
17402.000			-2.123			-2.123
17500.000			-2.124			-2.124
17600.000			-2.123			-2.123
17701.000			-2.123			-2.123
17800.000			-2.123			-2.123
17900.000			-2.125			-2.125
18000.000			-2.124			-2.124
18101.000			-2.122			-2.122
18201.000			-2.122			-2.122
18300.000			-2.122			-2.122
18400.000			-2.122			-2.122
18501.000			-2.122			-2.122
18600.000			-2.121			-2.121
18700.000			-2.121			-2.121
18802.000			-2.122			-2.122
18901.000			-2.121			-2.121
19000.000			-2.120			-2.120
19101.000			-2.120			-2.120
19200.000			-2.120			-2.120
19300.000			-2.121			-2.121
19401.000			-2.120			-2.120
19500.000			-2.119			-2.119
19601.000			-2.120			-2.120
19702.000			-2.119			-2.119
19800.000			-2.120			-2.120
19900.000			-2.119			-2.119
20001.000			-2.119			-2.119
20100.000			-2.118			-2.118
20200.000			-2.117			-2.117
20302.000			-2.117			-2.117
20401.000			-2.118			-2.118
20500.000			-2.117			-2.117
20601.000			-2.116			-2.116
20700.000			-2.116			-2.116
20800.000			-2.117			-2.117
20901.000			-2.117			-2.117
21000.000			-2.114			-2.114
21100.000			-2.114			-2.114
21202.000			-2.115			-2.115
21301.000			-2.115			-2.115
21401.000			-2.114			-2.114
21500.000			-2.115			-2.115
21600.000			-2.115			-2.115
21701.000			-2.113			-2.113
21800.000			-2.114			-2.114
21901.000			-2.112			-2.112
22002.000			-2.112			-2.112
22100.000			-2.113			-2.113
22200.000			-2.114			-2.114
22301.000			-2.113			-2.113
22400.000			-2.113			-2.113
22500.000			-2.113			-2.113
22601.000			-2.113			-2.113
22701.000			-2.113			-2.113
22801.000			-2.113			-2.113
22901.000			-2.112			-2.112
23000.000			-2.111			-2.111
23100.000			-2.111			-2.111
23201.000			-2.111			-2.111
23300.000			-2.110			-2.110
23401.000			-2.111			-2.111
23502.000			-2.111			-2.111
23600.000			-2.111			-2.111
23700.000			-2.112			-2.112
23801.000			-2.112			-2.112
23900.000			-2.111			-2.111
24000.000			-2.110			-2.110
24102.000			-2.111			-2.111
24201.000			-2.111			-2.111
24300.000			-2.111			-2.111
24400.000			-2.110			-2.110
24500.000			-2.109			-2.109
24601.000			-2.109			-2.109
24700.000			-2.110			-2.110
24800.000			-2.111			-2.111
24902.000			-2.111			-2.111
25001.000			-2.109			-2.109
25100.000			-2.109			-2.109
25201.000			-2.109			-2.109
25300.000			-2.109			-2.109
25400.000			-2.108			-2.108
25501.000			-2.107			-2.107
25600.000			-2.107			-2.107
25701.000			-2.108			-2.108
25802.000			-2.108			-2.108
25900.000			-2.107			-2.107
26000.000			-2.107			-2.107
26101.000			-2.106			-2.106
26200.000			-2.106			-2.106
26300.000			-2.106			-2.106
26402.000			-2.107			-2.107
26501.000			-2.106			-2.106
26600.000			-2.106			-2.106
26701.000			-2.106			-2.106
26800.000			-2.105			-2.105
26900.000			-2.105			-2.105
27001.000			-2.105			-2.105
27100.000			-2.105			-2.105
27201.000			-2.106			-2.106
27302.000			-2.106			-2.106
27400.000			-2.105			-2.105
27500.000			-2.104			-2.104
27600.000			-2.105			-2.105
27700.000			-2.105			-2.105
27801.000			-2.105			-2.105
27900.000			-2.104			-2.104
28001.000			-2.105			-2.105
28102.000			-2.105			-2.105
28200.000			-2.104			-2.104
28300.000			-2.103			-2.103
28401.000			-2.104			-2.104
28500.000			-2.104			-2.104
28600.000			-2.103			-2.103
28701.000			-2.102			-2.102
28801.000			-2.102			-2.102
28901.000			-2.104			-2.104
29001.000			-2.103			-2.103
29100.000			-2.102			-2.102
29200.000			-2.102			-2.102
29301.000			-2.103			-2.103
29400.000			-2.103			-2.103
29501.000			-2.103			-2.103
29602.000			-2.103			-2.103
29700.000			-2.102			-2.102
29800.000			-2.102			-2.102
29901.000			-2.102			-2.102
30000.000			-2.102			-2.102
30100.000			-2.102			-2.102
30201.000			-2.103			-2.103
30301.000			-2.102			-2.102
30401.000			-2.102			-2.102
30501.000			-2.101			-2.101
30600.000			-2.100			-2.100
30700.000			-2.100			-2.100
30800.000			-2.101			-2.101
30900.000			-2.100			-2.100
31002.000			-2.100			-2.100
31101.000			-2.100			-2.100
31200.000			-2.101			-2.101
31301.000			-2.099			-2.099
31400.000			-2.099			-2.099
31500.000			-2.100			-2.100
31601.000			-2.099			-2.099
31701.000			-2.099			-2.099
31801.000			-2.099			-2.099
31902.000			-2.099			-2.099
32000.000			-2.099			-2.099
32100.000			-2.099			-2.099
32201.000			-2.099			-2.099
32300.000			-2.098			-2.098
32400.000			-2.098			-2.098
32502.000			-2.098			-2.098
32601.000			-2.098			-2.098
32701.000			-2.098			-2.098
32801.000			-2.097			-2.097
32900.000			-2.096			-2.096
33000.000			-2.097			-2.097
33101.000			-2.097			-2.097
33200.000			-2.097			-2.097
33301.000			-2.097			-2.097
33402.000			-2.097			-2.097
33501.000			-2.096			-2.096
33600.000			-2.097			-2.097
33701.000			-2.096			-2.096
33800.000			-2.097			-2.097
33900.000			-2.097			-2.097
34000.000			-2.096			-2.096
34101.000			-2.096			-2.096
34202.000			-2.095			-2.095
34300.000			-2.096			-2.096
34400.000			-2.095			-2.095
34501.000			-2.096			-2.096
34600.000			-2.096			-2.096
34700.000			-2.096			-2.096
34801.000			-2.095			-2.095
34901.000			-2.095			-2.095
35001.000			-2.094			-2.094
35101.000			-2.094			-2.094
35200.000			-2.095			-2.095
35300.000			-2.095			-2.095
35401.000			-2.094			-2.094
35500.000			-2.094			-2.094
35600.000			-2.094			-2.094
35702.000			-2.093			-2.093
35801.000			-2.094			-2.094
35900.000			-2.094			-2.094
36001.000			-2.094			-2.094
36100.000			-2.093			-2.093
36200.000			-2.093			-2.093
36301.000			-2.094			-2.094
36400.000			-2.092			-2.092
36501.000			-2.092			-2.092
36602.000			-2.092			-2.092
36700.000			-2.092			-2.092
36800.000			-2.092			-2.092
36901.000			-2.092			-2.092
37000.000			-2.091			-2.091
37100.000			-2.092			-2.092
37202.000			-2.091			-2.091
37301.000			-2.092			-2.092
37402.000			-2.092			-2.092
37500.000			-2.091			-2.091
37600.000			-2.092			-2.092
37701.000			-2.091			-2.091
37800.000			-2.091			-2.091
37900.000			-2.091			-2.091
38002.000			-2.090			-2.090
38101.000			-2.090			-2.090
38200.000			-2.089			-2.089
38301.000			-2.091			-2.091
38400.000			-2.090			-2.090
38500.000			-2.090			-2.090
38601.000			-2.090			-2.090
38700.000			-2.090			-2.090
38801.000			-2.090			-2.090
38902.000			-2.090			-2.090
39001.000			-2.089			-2.089
39100.000			-2.090			-2.090
39201.000			-2.090			-2.090
39300.000			-2.090			-2.090
39400.000			-2.089			-2.089
39501.000			-2.090			-2.090
39601.000			-2.089			-2.089
39701.000			-2.089			-2.089
39802.000			-2.090			-2.090
39900.000			-2.089			-2.089
40000.000			-2.088			-2.088
40101.000			-2.089			-2.089
40200.000			-2.088			-2.088
40300.000			-2.087			-2.087
40402.000			-2.088			-2.088
40501.000			-2.088			-2.088
40601.000			-2.088			-2.088
40700.000			-2.087			-2.087
40800.000			-2.088			-2.088
40901.000			-2.088			-2.088
41000.000			-2.087			-2.087
41100.000			-2.088			-2.088
41202.000			-2.088			-2.088
41301.000			-2.088			-2.088
41400.000			-2.087			-2.087
41501.000			-2.088			-2.088
41600.000			-2.088			-2.088
41700.000			-2.088			-2.088
41801.000			-2.087			-2.087
41900.000			-2.087			-2.087
42001.000			-2.087			-2.087
42102.000			-2.087			-2.087
42200.000			-2.088			-2.088
42300.000			-2.086			-2.086
42401.000			-2.086			-2.086
42500.000			-2.086			-2.086
42600.000			-2.086			-2.086
42701.000			-2.085			-2.085
42801.000			-2.086			-2.086
42901.000			-2.087			-2.087
43001.000			-2.087			-2.087
43100.000			-2.087			-2.087
43200.000			-2.086			-2.086
43301.000			-2.086			-2.086
43400.000			-2.087			-2.087
43500.000			-2.087			-2.087
43602.000			-2.087			-2.087
43701.000			-2.087			-2.087
43801.000			-2.086			-2.086
43900.000			-2.086			-2.086
44000.000			-2.086			-2.086
44101.000			-2.086			-2.086
44200.000			-2.086			-2.086
44300.000			-2.086			-2.086
44402.000			-2.086			-2.086
44501.000			-2.086			-2.086
44600.000			-2.086			-2.086
44701.000			-2.086			-2.086
44800.000			-2.086			-2.086
44900.000			-2.086			-2.086
45001.000			-2.086			-2.086
45101.000			-2.085			-2.085
45201.000			-2.086			-2.086
45302.000			-2.085			-2.085
45400.000			-2.085			-2.085
45500.000			-2.085			-2.085
45601.000			-2.084			-2.084
45700.000			-2.084			-2.084
45800.000			-2.084			-2.084
45902.000			-2.084			-2.084
46001.000			-2.085			-2.085
46100.000			-2.086			-2.086
46201.000			-2.085			-2.085
46300.000			-2.084			-2.084
46400.000			-2.085			-2.085
46501.000			-2.085			-2.085
46600.000			-2.084			-2.084
46702.000			-2.083			-2.083
46801.000			-2.084			-2.084
46900.000			-2.084			-2.084
47001.000			-2.083			-2.083
47100.000			-2.084			-2.084
47200.000			-2.084			-2.084
47301.000			-2.084			-2.084
47400.000			-2.083			-2.083
47501.000			-2.083			-2.083
47602.000			-2.084			-2.084
47700.000			-2.083			-2.083
47800.000			-2.083			-2.083
47901.000			-2.084			-2.084
48000.000			-2.084			-2.084
48100.000			-2.083			-2.083
48201.000			-2.083			-2.083
48301.000			-2.084			-2.084
48401.000			-2.084			-2.084
48501.000			-2.083			-2.083
48600.000			-2.082			-2.082
48700.000			-2.082			-2.082
48801.000			-2.082			-2.082
48900.000			-2.083			-2.083
49000.000			-2.083			-2.083
49102.000			-2.082			-2.082
49201.000			-2.082			-2.082
49300.000			-2.083			-2.083
49401.000			-2.082			-2.082
49500.000			-2.082			-2.082
49600.000			-2.083			-2.083
49701.000			-2.083			-2.083
49800.000			-2.083			-2.083
49902.000			-2.081			-2.081
50001.000			-2.082			-2.082
50100.000			-2.082			-2.082
50201.000			-2.081			-2.081
50300.000			-2.082			-2.082
50400.000			-2.081			-2.081
50501.000			-2.081			-2.081
50601.000			-2.081			-2.081
50701.000			-2.082			-2.082
50801.000			-2.082			-2.082
50900.000			-2.081			-2.081
51000.000			-2.080			-2.080
51101.000			-2.080			-2.080
51200.000			-2.080			-2.080
51300.000			-2.080			-2.080
51402.000			-2.080			-2.080
51501.000			-2.080			-2.080
51600.000			-2.080			-2.080
51701.000			-2.079			-2.079
51800.000			-2.080			-2.080
51900.000			-2.080			-2.080
52001.000			-2.081			-2.081
52100.000			-2.080			-2.080
52201.000			-2.079			-2.079
52302.000			-2.080			-2.080
52400.000			-2.079			-2.079
52500.000			-2.079			-2.079
52601.000			-2.079			-2.079
52700.000			-2.079			-2.079
52800.000			-2.078			-2.078
52901.000			-2.079			-2.079
53001.000			-2.079			-2.079
53102.000			-2.078			-2.078
53200.000			-2.079			-2.079
53300.000			-2.079			-2.079
53401.000			-2.079			-2.079
53500.000			-2.078			-2.078
53600.000			-2.078			-2.078
53702.000			-2.078			-2.078
53801.000			-2.079			-2.079
53901.000			-2.078			-2.078
54001.000			-2.078			-2.078
54100.000			-2.078			-2.078
54200.000			-2.078			-2.078
54301.000			-2.079			-2.079
54400.000			-2.078			-2.078
54501.000			-2.078			-2.078
54602.000			-2.078			-2.078
54700.000			-2.078			-2.078
54800.000			-2.078			-2.078
54901.000			-2.078			-2.078
55000.000			-2.077			-2.077
55100.000			-2.077			-2.077
55201.000			-2.077			-2.077
55301.000			-2.077			-2.077
55401.000			-2.076			-2.076
55501.000			-2.078			-2.078
55600.000			-2.076			-2.076
55700.000			-2.076			-2.076
55801.000			-2.077			-2.077
55900.000			-2.078			-2.078
56000.000			-2.078			-2.078
56102.000			-2.078			-2.078
56201.000			-2.077			-2.077
56300.000			-2.077			-2.077
56400.000			-2.078			-2.078
56500.000			-2.077			-2.077
56601.000			-2.077			-2.077
56700.000			-2.076			-2.076
56800.000			-2.076			-2.076
56902.000			-2.076			-2.076
57001.000			-2.076			-2.076
57100.000			-2.076			-2.076
57201.000			-2.076			-2.076
57300.000			-2.077			-2.077
57400.000			-2.076			-2.076
57501.000			-2.076			-2.076
57600.000			-2.076			-2.076
57701.000			-2.075			-2.075
57802.000			-2.076			-2.076
57900.000			-2.075			-2.075
58000.000			-2.075			-2.075
58101.000			-2.076			-2.076
58200.000			-2.075			-2.075
58300.000			-2.074			-2.074
58401.000			-2.074			-2.074
58501.000			-2.075			-2.075
58601.000			-2.075			-2.075
58701.000			-2.074			-2.074
58800.000			-2.074			-2.074
58900.000			-2.074			-2.074
59001.000			-2.074			-2.074
59100.000			-2.074			-2.074
59200.000			-2.074			-2.074
59302.000			-2.074			-2.074
59401.000			-2.074			-2.074
59500.000			-2.075			-2.075
59600.000			-2.075			-2.075
59700.000			-2.074			-2.074
59801.000			-2.074			-2.074
59900.000			-2.075			-2.075
60000.000			-2.075			-2.075
60102.000			-2.075			-2.075
60201.000			-2.074			-2.074
60300.000			-2.074			-2.074
60401.000			-2.075			-2.075
60500.000			-2.074			-2.074
60600.000			-2.075			-2.075
60701.000			-2.074			-2.074
60800.000			-2.074			-2.074
60901.000			-2.075			-2.075
61002.000			-2.075			-2.075
61100.000			-2.075			-2.075
61200.000			-2.075			-2.075
61301.000			-2.074			-2.074
61400.000			-2.075			-2.075
61500.000			-2.075			-2.075
61602.000			-2.075			-2.075
61701.000			-2.074			-2.074
61800.000			-2.074			-2.074
61901.000			-2.074			-2.074
62000.000			-2.075			-2.075
62100.000			-2.075			-2.075
62201.000			-2.075			-2.075
62300.000			-2.075			-2.075
62401.000			-2.076			-2.076
62502.000			-2.074			-2.074
62600.000			-2.074			-2.074
62700.000			-2.074			-2.074
62800.000			-2.075			-2.075
62900.000			-2.074			-2.074
63001.000			-2.074			-2.074
63100.000			-2.074			-2.074
63201.000			-2.074			-2.074
63302.000			-2.074			-2.074
63400.000			-2.074			-2.074
63500.000			-2.074			-2.074
63601.000			-2.074			-2.074
63700.000			-2.074			-2.074
63800.000			-2.074			-2.074
63901.000			-2.074			-2.074
64001.000			-2.073			-2.073
64101.000			-2.074			-2.074
64201.000			-2.074			-2.074
64300.000			-2.074			-2.074
64400.000			-2.074			-2.074
64501.000			-2.074			-2.074
64600.000			-2.074			-2.074
64700.000			-2.074			-2.074
64802.000			-2.073			-2.073
64901.000			-2.073			-2.073
65000.000			-2.073			-2.073
65101.000			-2.073			-2.073
65200.000			-2.073			-2.073
65300.000			-2.072			-2.072
65401.000			-2.072			-2.072
65501.000			-2.073			-2.073
65601.000			-2.073			-2.073
65702.000			-2.073			-2.073
65800.000			-2.073			-2.073
65900.000			-2.073			-2.073
66000.000			-2.072			-2.072
66100.000			-2.073			-2.073
66201.000			-2.073			-2.073
66300.000			-2.072			-2.072
66401.000			-2.072			-2.072
66502.000			-2.072			-2.072
66600.000			-2.071			-2.071
66700.000			-2.071			-2.071
66801.000			-2.071			-2.071
66900.000			-2.072			-2.072
67000.000			-2.071			-2.071
67102.000			-2.071			-2.071
67201.000			-2.072			-2.072
67301.000			-2.072			-2.072
67401.000			-2.071			-2.071
67500.000			-2.071			-2.071
67600.000			-2.071			-2.071
67701.000			-2.071			-2.071
67800.000			-2.071			-2.071
67900.000			-2.071			-2.071
68002.000			-2.070			-2.070
68101.000			-2.070			-2.070
68200.000			-2.070			-2.070
68301.000			-2.071			-2.071
68400.000			-2.071			-2.071
68500.000			-2.072			-2.072
68601.000			-2.071			-2.071
68701.000			-2.070			-2.070
68801.000			-2.070			-2.070
68902.000			-2.069			-2.069
69000.000			-2.070			-2.070
69100.000			-2.070			-2.070
69200.000			-2.070			-2.070
69300.000			-2.070			-2.070
69401.000			-2.070			-2.070
69501.000			-2.070			-2.070
69601.000			-2.070			-2.070
69702.000			-2.070			-2.070
69800.000			-2.070			-2.070
69900.000			-2.069			-2.069
70001.000			-2.068			-2.068
70100.000			-2.068			-2.068
70200.000			-2.068			-2.068
70301.000			-2.068			-2.068
70401.000			-2.068			-2.068
70501.000			-2.068			-2.068
70601.000			-2.068			-2.068
70700.000			-2.067			-2.067
70800.000			-2.067			-2.067
70901.000			-2.068			-2.068
71000.000			-2.067			-2.067
71100.000			-2.067			-2.067
71202.000			-2.066			-2.066
