# Acquired on 19/12/2023 17:23:38 
# SPIDER: Creep_1mm_07714532C-1
# CREEP MEASUREMENT

# time [ms]		force [N]		stiffness [N/mm]
0.000			-0.430			-0.430
102.000			-0.826			-0.826
201.000			-1.038			-1.038
301.000			-1.083			-1.083
400.000			-1.077			-1.077
500.000			-1.073			-1.073
601.000			-1.069			-1.069
700.000			-1.064			-1.064
801.000			-1.061			-1.061
901.000			-1.060			-1.060
1000.000			-1.056			-1.056
1100.000			-1.054			-1.054
1201.000			-1.052			-1.052
1300.000			-1.050			-1.050
1401.000			-1.049			-1.049
1502.000			-1.047			-1.047
1600.000			-1.046			-1.046
1700.000			-1.044			-1.044
1801.000			-1.042			-1.042
1900.000			-1.041			-1.041
2000.000			-1.040			-1.040
2102.000			-1.039			-1.039
2201.000			-1.038			-1.038
2300.000			-1.037			-1.037
2401.000			-1.036			-1.036
2500.000			-1.034			-1.034
2600.000			-1.034			-1.034
2701.000			-1.033			-1.033
2801.000			-1.032			-1.032
2901.000			-1.032			-1.032
3001.000			-1.031			-1.031
3100.000			-1.030			-1.030
3200.000			-1.029			-1.029
3300.000			-1.029			-1.029
3400.000			-1.028			-1.028
3502.000			-1.027			-1.027
3601.000			-1.027			-1.027
3700.000			-1.027			-1.027
3801.000			-1.026			-1.026
3900.000			-1.024			-1.024
4000.000			-1.023			-1.023
4101.000			-1.022			-1.022
4201.000			-1.022			-1.022
4300.000			-1.023			-1.023
4401.000			-1.022			-1.022
4500.000			-1.021			-1.021
4600.000			-1.021			-1.021
4701.000			-1.020			-1.020
4801.000			-1.019			-1.019
4901.000			-1.019			-1.019
5001.000			-1.019			-1.019
5100.000			-1.017			-1.017
5200.000			-1.018			-1.018
5301.000			-1.018			-1.018
5400.000			-1.016			-1.016
5501.000			-1.015			-1.015
5602.000			-1.016			-1.016
5700.000			-1.016			-1.016
5800.000			-1.016			-1.016
5901.000			-1.016			-1.016
6000.000			-1.015			-1.015
6100.000			-1.014			-1.014
6202.000			-1.013			-1.013
6301.000			-1.012			-1.012
6400.000			-1.013			-1.013
6500.000			-1.013			-1.013
6600.000			-1.011			-1.011
6701.000			-1.011			-1.011
6800.000			-1.012			-1.012
6901.000			-1.012			-1.012
7001.000			-1.011			-1.011
7100.000			-1.010			-1.010
7200.000			-1.010			-1.010
7301.000			-1.010			-1.010
7400.000			-1.010			-1.010
7501.000			-1.010			-1.010
7602.000			-1.010			-1.010
7700.000			-1.009			-1.009
7800.000			-1.008			-1.008
7901.000			-1.007			-1.007
8000.000			-1.007			-1.007
8100.000			-1.008			-1.008
8202.000			-1.007			-1.007
8301.000			-1.008			-1.008
8400.000			-1.007			-1.007
8501.000			-1.007			-1.007
8600.000			-1.006			-1.006
8700.000			-1.005			-1.005
8801.000			-1.005			-1.005
8901.000			-1.005			-1.005
9001.000			-1.005			-1.005
9101.000			-1.004			-1.004
9200.000			-1.003			-1.003
9300.000			-1.003			-1.003
9401.000			-1.002			-1.002
9500.000			-1.003			-1.003
9602.000			-1.003			-1.003
9701.000			-1.003			-1.003
9800.000			-1.002			-1.002
9901.000			-1.002			-1.002
10000.000			-1.003			-1.003
10100.000			-1.002			-1.002
10202.000			-1.001			-1.001
10301.000			-1.001			-1.001
10400.000			-1.002			-1.002
10501.000			-1.001			-1.001
10600.000			-1.001			-1.001
10700.000			-1.000			-1.000
10801.000			-1.000			-1.000
10901.000			-0.999			-0.999
11001.000			-0.999			-0.999
11101.000			-0.999			-0.999
11200.000			-0.999			-0.999
11300.000			-0.998			-0.998
11401.000			-0.998			-0.998
11500.000			-0.997			-0.997
11600.000			-0.997			-0.997
11702.000			-0.997			-0.997
11801.000			-0.996			-0.996
11900.000			-0.996			-0.996
12001.000			-0.996			-0.996
12100.000			-0.996			-0.996
12200.000			-0.995			-0.995
12301.000			-0.995			-0.995
12401.000			-0.995			-0.995
12501.000			-0.996			-0.996
12601.000			-0.996			-0.996
12700.000			-0.996			-0.996
12800.000			-0.994			-0.994
12900.000			-0.994			-0.994
13000.000			-0.994			-0.994
13101.000			-0.994			-0.994
13201.000			-0.994			-0.994
13301.000			-0.993			-0.993
13401.000			-0.993			-0.993
13500.000			-0.993			-0.993
13600.000			-0.993			-0.993
13701.000			-0.994			-0.994
13800.000			-0.993			-0.993
13901.000			-0.993			-0.993
14002.000			-0.992			-0.992
14100.000			-0.992			-0.992
14200.000			-0.992			-0.992
14301.000			-0.993			-0.993
14400.000			-0.993			-0.993
14500.000			-0.993			-0.993
14601.000			-0.992			-0.992
14701.000			-0.992			-0.992
14800.000			-0.992			-0.992
14901.000			-0.993			-0.993
15000.000			-0.993			-0.993
15100.000			-0.992			-0.992
15201.000			-0.992			-0.992
15300.000			-0.992			-0.992
15401.000			-0.992			-0.992
15502.000			-0.992			-0.992
15600.000			-0.991			-0.991
15700.000			-0.991			-0.991
15801.000			-0.991			-0.991
15900.000			-0.990			-0.990
16000.000			-0.991			-0.991
16102.000			-0.991			-0.991
16201.000			-0.991			-0.991
16301.000			-0.990			-0.990
16400.000			-0.988			-0.988
16500.000			-0.989			-0.989
16601.000			-0.990			-0.990
16700.000			-0.990			-0.990
16800.000			-0.989			-0.989
16902.000			-0.989			-0.989
17001.000			-0.989			-0.989
17100.000			-0.989			-0.989
17201.000			-0.988			-0.988
17300.000			-0.988			-0.988
17400.000			-0.988			-0.988
17501.000			-0.989			-0.989
17601.000			-0.990			-0.990
17701.000			-0.989			-0.989
17801.000			-0.989			-0.989
17900.000			-0.988			-0.988
18000.000			-0.988			-0.988
18101.000			-0.987			-0.987
18200.000			-0.987			-0.987
18300.000			-0.988			-0.988
18402.000			-0.988			-0.988
18501.000			-0.986			-0.986
18600.000			-0.986			-0.986
18701.000			-0.986			-0.986
18800.000			-0.987			-0.987
18900.000			-0.987			-0.987
19001.000			-0.987			-0.987
19100.000			-0.985			-0.985
19202.000			-0.985			-0.985
19301.000			-0.987			-0.987
19400.000			-0.986			-0.986
19501.000			-0.986			-0.986
19600.000			-0.986			-0.986
19700.000			-0.986			-0.986
19801.000			-0.985			-0.985
19901.000			-0.985			-0.985
20001.000			-0.986			-0.986
20101.000			-0.985			-0.985
20200.000			-0.984			-0.984
20300.000			-0.985			-0.985
20401.000			-0.985			-0.985
20500.000			-0.985			-0.985
20600.000			-0.984			-0.984
20702.000			-0.984			-0.984
20801.000			-0.984			-0.984
20900.000			-0.983			-0.983
21001.000			-0.983			-0.983
21100.000			-0.984			-0.984
21200.000			-0.983			-0.983
21301.000			-0.983			-0.983
21401.000			-0.984			-0.984
21501.000			-0.982			-0.982
21601.000			-0.981			-0.981
21700.000			-0.981			-0.981
21800.000			-0.981			-0.981
21901.000			-0.981			-0.981
22000.000			-0.982			-0.982
22101.000			-0.982			-0.982
22202.000			-0.981			-0.981
22300.000			-0.981			-0.981
22400.000			-0.981			-0.981
22500.000			-0.981			-0.981
22600.000			-0.981			-0.981
22701.000			-0.981			-0.981
22801.000			-0.982			-0.982
22901.000			-0.982			-0.982
23001.000			-0.981			-0.981
23100.000			-0.981			-0.981
23200.000			-0.980			-0.980
23301.000			-0.980			-0.980
23400.000			-0.980			-0.980
23501.000			-0.980			-0.980
23602.000			-0.979			-0.979
23700.000			-0.980			-0.980
23800.000			-0.979			-0.979
23901.000			-0.980			-0.980
24000.000			-0.980			-0.980
24100.000			-0.979			-0.979
24201.000			-0.980			-0.980
24301.000			-0.979			-0.979
24401.000			-0.979			-0.979
24501.000			-0.979			-0.979
24600.000			-0.979			-0.979
24700.000			-0.979			-0.979
24801.000			-0.979			-0.979
24900.000			-0.979			-0.979
25001.000			-0.978			-0.978
25102.000			-0.978			-0.978
25200.000			-0.978			-0.978
25300.000			-0.977			-0.977
25401.000			-0.976			-0.976
25500.000			-0.977			-0.977
25600.000			-0.977			-0.977
25700.000			-0.976			-0.976
25801.000			-0.975			-0.975
25902.000			-0.976			-0.976
26000.000			-0.976			-0.976
26100.000			-0.975			-0.975
26201.000			-0.976			-0.976
26300.000			-0.976			-0.976
26400.000			-0.976			-0.976
26502.000			-0.976			-0.976
26601.000			-0.974			-0.974
26700.000			-0.975			-0.975
26801.000			-0.974			-0.974
26900.000			-0.974			-0.974
27000.000			-0.974			-0.974
27101.000			-0.974			-0.974
27201.000			-0.974			-0.974
27301.000			-0.975			-0.975
27401.000			-0.974			-0.974
27500.000			-0.974			-0.974
27600.000			-0.975			-0.975
27701.000			-0.975			-0.975
27800.000			-0.975			-0.975
27900.000			-0.974			-0.974
28002.000			-0.974			-0.974
28101.000			-0.973			-0.973
28200.000			-0.972			-0.972
28301.000			-0.972			-0.972
28400.000			-0.972			-0.972
28500.000			-0.973			-0.973
28601.000			-0.972			-0.972
28701.000			-0.972			-0.972
28802.000			-0.973			-0.973
28900.000			-0.973			-0.973
29000.000			-0.973			-0.973
29101.000			-0.972			-0.972
29200.000			-0.971			-0.971
29300.000			-0.972			-0.972
29401.000			-0.971			-0.971
29501.000			-0.970			-0.970
29601.000			-0.972			-0.972
29701.000			-0.971			-0.971
29800.000			-0.971			-0.971
29900.000			-0.971			-0.971
30001.000			-0.970			-0.970
30100.000			-0.970			-0.970
30201.000			-0.970			-0.970
30302.000			-0.970			-0.970
30400.000			-0.968			-0.968
30500.000			-0.969			-0.969
30601.000			-0.969			-0.969
30700.000			-0.970			-0.970
30800.000			-0.970			-0.970
30902.000			-0.969			-0.969
31001.000			-0.969			-0.969
31100.000			-0.970			-0.970
31201.000			-0.970			-0.970
31300.000			-0.970			-0.970
31400.000			-0.969			-0.969
31501.000			-0.968			-0.968
31600.000			-0.969			-0.969
31701.000			-0.969			-0.969
31802.000			-0.968			-0.968
31900.000			-0.968			-0.968
32000.000			-0.968			-0.968
32100.000			-0.969			-0.969
32200.000			-0.969			-0.969
32301.000			-0.969			-0.969
32401.000			-0.968			-0.968
32501.000			-0.967			-0.967
32601.000			-0.966			-0.966
32700.000			-0.966			-0.966
32800.000			-0.967			-0.967
32901.000			-0.968			-0.968
33000.000			-0.967			-0.967
33100.000			-0.967			-0.967
33202.000			-0.967			-0.967
33300.000			-0.967			-0.967
33400.000			-0.967			-0.967
33501.000			-0.967			-0.967
33600.000			-0.967			-0.967
33700.000			-0.967			-0.967
33801.000			-0.966			-0.966
33901.000			-0.966			-0.966
34001.000			-0.965			-0.965
34101.000			-0.965			-0.965
34200.000			-0.966			-0.966
34300.000			-0.966			-0.966
34401.000			-0.966			-0.966
34500.000			-0.966			-0.966
34601.000			-0.966			-0.966
34702.000			-0.967			-0.967
34800.000			-0.967			-0.967
34900.000			-0.966			-0.966
35001.000			-0.966			-0.966
35100.000			-0.966			-0.966
35200.000			-0.966			-0.966
35300.000			-0.966			-0.966
35401.000			-0.967			-0.967
35502.000			-0.966			-0.966
35600.000			-0.966			-0.966
35700.000			-0.966			-0.966
35801.000			-0.966			-0.966
35900.000			-0.965			-0.965
36000.000			-0.966			-0.966
36102.000			-0.965			-0.965
36201.000			-0.965			-0.965
36300.000			-0.966			-0.966
36401.000			-0.966			-0.966
36500.000			-0.965			-0.965
36600.000			-0.965			-0.965
36701.000			-0.965			-0.965
36801.000			-0.964			-0.964
36901.000			-0.966			-0.966
37001.000			-0.965			-0.965
37100.000			-0.964			-0.964
37200.000			-0.965			-0.965
37301.000			-0.964			-0.964
37400.000			-0.964			-0.964
37500.000			-0.964			-0.964
37602.000			-0.963			-0.963
37701.000			-0.964			-0.964
37800.000			-0.963			-0.963
37901.000			-0.963			-0.963
38000.000			-0.963			-0.963
38100.000			-0.964			-0.964
38201.000			-0.964			-0.964
38301.000			-0.964			-0.964
38402.000			-0.963			-0.963
38500.000			-0.963			-0.963
38600.000			-0.964			-0.964
38701.000			-0.964			-0.964
38800.000			-0.963			-0.963
38900.000			-0.963			-0.963
39002.000			-0.963			-0.963
39101.000			-0.964			-0.964
39200.000			-0.964			-0.964
39301.000			-0.963			-0.963
39400.000			-0.963			-0.963
39500.000			-0.963			-0.963
39601.000			-0.963			-0.963
39700.000			-0.963			-0.963
39801.000			-0.962			-0.962
39902.000			-0.962			-0.962
40000.000			-0.962			-0.962
40100.000			-0.962			-0.962
40201.000			-0.962			-0.962
40300.000			-0.962			-0.962
40400.000			-0.963			-0.963
40502.000			-0.962			-0.962
40601.000			-0.962			-0.962
40700.000			-0.962			-0.962
40801.000			-0.962			-0.962
40900.000			-0.961			-0.961
41000.000			-0.961			-0.961
41101.000			-0.962			-0.962
41201.000			-0.962			-0.962
41301.000			-0.963			-0.963
41401.000			-0.962			-0.962
41500.000			-0.962			-0.962
41600.000			-0.962			-0.962
41700.000			-0.962			-0.962
41800.000			-0.961			-0.961
41901.000			-0.961			-0.961
42001.000			-0.962			-0.962
42101.000			-0.962			-0.962
42201.000			-0.962			-0.962
42300.000			-0.962			-0.962
42400.000			-0.962			-0.962
42501.000			-0.963			-0.963
42600.000			-0.963			-0.963
42701.000			-0.961			-0.961
42802.000			-0.962			-0.962
42900.000			-0.961			-0.961
43000.000			-0.961			-0.961
43101.000			-0.961			-0.961
43200.000			-0.961			-0.961
43300.000			-0.960			-0.960
43402.000			-0.961			-0.961
43501.000			-0.962			-0.962
43600.000			-0.962			-0.962
43701.000			-0.962			-0.962
43800.000			-0.961			-0.961
43900.000			-0.962			-0.962
44001.000			-0.961			-0.961
44101.000			-0.960			-0.960
44201.000			-0.960			-0.960
44301.000			-0.960			-0.960
44400.000			-0.960			-0.960
44500.000			-0.960			-0.960
44601.000			-0.961			-0.961
44700.000			-0.960			-0.960
44800.000			-0.959			-0.959
44902.000			-0.959			-0.959
45001.000			-0.958			-0.958
45101.000			-0.959			-0.959
45200.000			-0.959			-0.959
45300.000			-0.958			-0.958
45401.000			-0.958			-0.958
45500.000			-0.959			-0.959
45601.000			-0.959			-0.959
45702.000			-0.959			-0.959
45800.000			-0.959			-0.959
45900.000			-0.959			-0.959
46001.000			-0.958			-0.958
46100.000			-0.957			-0.957
46200.000			-0.958			-0.958
46301.000			-0.958			-0.958
46401.000			-0.957			-0.957
46501.000			-0.957			-0.957
46601.000			-0.957			-0.957
46700.000			-0.957			-0.957
46800.000			-0.957			-0.957
46901.000			-0.957			-0.957
47000.000			-0.957			-0.957
47101.000			-0.956			-0.956
47202.000			-0.957			-0.957
47300.000			-0.957			-0.957
47400.000			-0.956			-0.956
47501.000			-0.956			-0.956
47600.000			-0.956			-0.956
47700.000			-0.956			-0.956
47801.000			-0.955			-0.955
47901.000			-0.955			-0.955
48002.000			-0.956			-0.956
48100.000			-0.956			-0.956
48200.000			-0.956			-0.956
48301.000			-0.955			-0.955
48400.000			-0.956			-0.956
48500.000			-0.956			-0.956
48602.000			-0.955			-0.955
48701.000			-0.956			-0.956
48800.000			-0.955			-0.955
48901.000			-0.954			-0.954
49000.000			-0.954			-0.954
49100.000			-0.956			-0.956
49201.000			-0.957			-0.957
49300.000			-0.956			-0.956
49401.000			-0.954			-0.954
49502.000			-0.954			-0.954
49600.000			-0.955			-0.955
49700.000			-0.955			-0.955
49801.000			-0.956			-0.956
49900.000			-0.955			-0.955
50000.000			-0.955			-0.955
50102.000			-0.954			-0.954
50201.000			-0.955			-0.955
50300.000			-0.954			-0.954
50401.000			-0.954			-0.954
50500.000			-0.953			-0.953
50600.000			-0.954			-0.954
50701.000			-0.955			-0.955
50800.000			-0.954			-0.954
50901.000			-0.953			-0.953
51002.000			-0.954			-0.954
51100.000			-0.954			-0.954
51200.000			-0.955			-0.955
51300.000			-0.955			-0.955
51400.000			-0.954			-0.954
51501.000			-0.955			-0.955
51601.000			-0.955			-0.955
51701.000			-0.954			-0.954
51801.000			-0.954			-0.954
51900.000			-0.955			-0.955
52000.000			-0.954			-0.954
52101.000			-0.953			-0.953
52200.000			-0.953			-0.953
52301.000			-0.953			-0.953
52402.000			-0.953			-0.953
52500.000			-0.954			-0.954
52600.000			-0.954			-0.954
52701.000			-0.953			-0.953
52800.000			-0.953			-0.953
52900.000			-0.953			-0.953
53002.000			-0.953			-0.953
53101.000			-0.953			-0.953
53200.000			-0.952			-0.952
53301.000			-0.953			-0.953
53400.000			-0.953			-0.953
53500.000			-0.953			-0.953
53601.000			-0.953			-0.953
53700.000			-0.952			-0.952
53801.000			-0.954			-0.954
53902.000			-0.953			-0.953
54000.000			-0.953			-0.953
54100.000			-0.954			-0.954
54201.000			-0.953			-0.953
54300.000			-0.953			-0.953
54400.000			-0.953			-0.953
54502.000			-0.952			-0.952
54601.000			-0.953			-0.953
54701.000			-0.953			-0.953
54800.000			-0.952			-0.952
54900.000			-0.952			-0.952
55001.000			-0.952			-0.952
55100.000			-0.953			-0.953
55201.000			-0.953			-0.953
55302.000			-0.953			-0.953
55400.000			-0.952			-0.952
55500.000			-0.952			-0.952
55601.000			-0.953			-0.953
55700.000			-0.952			-0.952
55800.000			-0.952			-0.952
55902.000			-0.953			-0.953
56001.000			-0.953			-0.953
56100.000			-0.953			-0.953
56201.000			-0.952			-0.952
56300.000			-0.952			-0.952
56400.000			-0.952			-0.952
56501.000			-0.952			-0.952
56600.000			-0.951			-0.951
56701.000			-0.952			-0.952
56802.000			-0.952			-0.952
56900.000			-0.952			-0.952
57000.000			-0.952			-0.952
57101.000			-0.952			-0.952
57200.000			-0.952			-0.952
57300.000			-0.952			-0.952
57402.000			-0.951			-0.951
57501.000			-0.951			-0.951
57600.000			-0.953			-0.953
57700.000			-0.953			-0.953
57800.000			-0.952			-0.952
57901.000			-0.952			-0.952
58000.000			-0.952			-0.952
58100.000			-0.952			-0.952
58202.000			-0.951			-0.951
58301.000			-0.952			-0.952
58400.000			-0.952			-0.952
58501.000			-0.951			-0.951
58600.000			-0.951			-0.951
58700.000			-0.950			-0.950
58801.000			-0.950			-0.950
58901.000			-0.950			-0.950
59001.000			-0.950			-0.950
59101.000			-0.950			-0.950
59200.000			-0.951			-0.951
59300.000			-0.950			-0.950
59401.000			-0.949			-0.949
59500.000			-0.949			-0.949
59601.000			-0.950			-0.950
59702.000			-0.950			-0.950
59800.000			-0.950			-0.950
59900.000			-0.950			-0.950
60001.000			-0.950			-0.950
60100.000			-0.950			-0.950
60200.000			-0.950			-0.950
60301.000			-0.950			-0.950
60401.000			-0.950			-0.950
60500.000			-0.951			-0.951
60601.000			-0.949			-0.949
60700.000			-0.949			-0.949
60800.000			-0.951			-0.951
60900.000			-0.951			-0.951
61000.000			-0.950			-0.950
61102.000			-0.950			-0.950
61201.000			-0.950			-0.950
61300.000			-0.950			-0.950
61401.000			-0.950			-0.950
61500.000			-0.951			-0.951
61600.000			-0.950			-0.950
61701.000			-0.950			-0.950
61801.000			-0.950			-0.950
61901.000			-0.950			-0.950
62001.000			-0.951			-0.951
62100.000			-0.950			-0.950
62200.000			-0.950			-0.950
62301.000			-0.950			-0.950
62400.000			-0.949			-0.949
62501.000			-0.949			-0.949
62602.000			-0.948			-0.948
62700.000			-0.949			-0.949
62800.000			-0.949			-0.949
62901.000			-0.948			-0.948
63000.000			-0.949			-0.949
63100.000			-0.949			-0.949
63201.000			-0.949			-0.949
63301.000			-0.947			-0.947
63401.000			-0.948			-0.948
63501.000			-0.949			-0.949
63600.000			-0.949			-0.949
63700.000			-0.949			-0.949
63801.000			-0.948			-0.948
63900.000			-0.948			-0.948
64002.000			-0.948			-0.948
64101.000			-0.948			-0.948
64200.000			-0.948			-0.948
64301.000			-0.949			-0.949
64400.000			-0.948			-0.948
64500.000			-0.948			-0.948
64601.000			-0.949			-0.949
64700.000			-0.949			-0.949
64801.000			-0.948			-0.948
64902.000			-0.948			-0.948
65000.000			-0.948			-0.948
65100.000			-0.947			-0.947
65201.000			-0.947			-0.947
65300.000			-0.947			-0.947
65400.000			-0.947			-0.947
65502.000			-0.947			-0.947
65601.000			-0.947			-0.947
65700.000			-0.947			-0.947
65801.000			-0.947			-0.947
65900.000			-0.947			-0.947
66000.000			-0.947			-0.947
66101.000			-0.946			-0.946
66200.000			-0.947			-0.947
66301.000			-0.947			-0.947
66402.000			-0.947			-0.947
66500.000			-0.947			-0.947
66600.000			-0.947			-0.947
66701.000			-0.946			-0.946
66800.000			-0.945			-0.945
66900.000			-0.946			-0.946
67002.000			-0.945			-0.945
67101.000			-0.946			-0.946
67200.000			-0.946			-0.946
67300.000			-0.948			-0.948
67400.000			-0.948			-0.948
67501.000			-0.947			-0.947
67600.000			-0.947			-0.947
67700.000			-0.947			-0.947
67802.000			-0.946			-0.946
67901.000			-0.947			-0.947
68000.000			-0.946			-0.946
68101.000			-0.946			-0.946
68200.000			-0.947			-0.947
68300.000			-0.946			-0.946
68401.000			-0.946			-0.946
68500.000			-0.946			-0.946
68601.000			-0.946			-0.946
68702.000			-0.946			-0.946
68800.000			-0.946			-0.946
68900.000			-0.945			-0.945
69001.000			-0.946			-0.946
69100.000			-0.946			-0.946
69200.000			-0.946			-0.946
69302.000			-0.947			-0.947
69401.000			-0.947			-0.947
69500.000			-0.945			-0.945
69601.000			-0.946			-0.946
69700.000			-0.946			-0.946
69800.000			-0.946			-0.946
69901.000			-0.946			-0.946
70000.000			-0.946			-0.946
70101.000			-0.946			-0.946
70202.000			-0.946			-0.946
70300.000			-0.947			-0.947
70400.000			-0.946			-0.946
70500.000			-0.945			-0.945
70600.000			-0.946			-0.946
70701.000			-0.947			-0.947
70801.000			-0.946			-0.946
70901.000			-0.946			-0.946
71001.000			-0.946			-0.946
71100.000			-0.946			-0.946
71200.000			-0.945			-0.945
