# Acquired on 26/01/2024 15:21:37 
# SPIDER: Creep_6mm_HM077x145x38AA-2
# CREEP MEASUREMENT

# time [ms]		force [N]		stiffness [N/mm]
0.000			-30.787			-5.131
104.000			-31.516			-5.253
204.000			-31.647			-5.275
305.000			-31.555			-5.259
404.000			-31.476			-5.246
504.000			-31.416			-5.236
605.000			-31.318			-5.220
704.000			-31.276			-5.213
804.000			-31.240			-5.207
905.000			-31.205			-5.201
1004.000			-31.174			-5.196
1103.000			-31.145			-5.191
1205.000			-31.117			-5.186
1304.000			-31.094			-5.182
1404.000			-31.047			-5.174
1505.000			-31.026			-5.171
1603.000			-31.006			-5.168
1704.000			-30.987			-5.165
1805.000			-30.967			-5.161
1904.000			-30.950			-5.158
2004.000			-30.933			-5.155
2105.000			-30.898			-5.150
2204.000			-30.882			-5.147
2303.000			-30.868			-5.145
2405.000			-30.852			-5.142
2504.000			-30.839			-5.140
2604.000			-30.827			-5.138
2705.000			-30.813			-5.136
2803.000			-30.788			-5.131
2904.000			-30.775			-5.129
3005.000			-30.763			-5.127
3104.000			-30.752			-5.125
3204.000			-30.741			-5.124
3304.000			-30.731			-5.122
3404.000			-30.720			-5.120
3503.000			-30.700			-5.117
3604.000			-30.690			-5.115
3704.000			-30.680			-5.113
3805.000			-30.671			-5.112
3904.000			-30.662			-5.110
4003.000			-30.653			-5.109
4105.000			-30.644			-5.107
4204.000			-30.635			-5.106
4304.000			-30.618			-5.103
4405.000			-30.610			-5.102
4504.000			-30.602			-5.100
4604.000			-30.594			-5.099
4704.000			-30.586			-5.098
4804.000			-30.577			-5.096
4904.000			-30.570			-5.095
5005.000			-30.556			-5.093
5104.000			-30.548			-5.091
5203.000			-30.542			-5.090
5305.000			-30.535			-5.089
5404.000			-30.529			-5.088
5504.000			-30.522			-5.087
5605.000			-30.514			-5.086
5704.000			-30.502			-5.084
5804.000			-30.496			-5.083
5904.000			-30.489			-5.082
6004.000			-30.483			-5.080
6104.000			-30.476			-5.079
6205.000			-30.471			-5.078
6304.000			-30.465			-5.078
6404.000			-30.458			-5.076
6505.000			-30.448			-5.075
6603.000			-30.441			-5.074
6705.000			-30.436			-5.073
6804.000			-30.431			-5.072
6904.000			-30.426			-5.071
7005.000			-30.420			-5.070
7103.000			-30.414			-5.069
7204.000			-30.404			-5.067
7305.000			-30.398			-5.066
7404.000			-30.392			-5.065
7504.000			-30.387			-5.065
7605.000			-30.382			-5.064
7704.000			-30.378			-5.063
7803.000			-30.374			-5.062
7905.000			-30.365			-5.061
8004.000			-30.359			-5.060
8104.000			-30.354			-5.059
8205.000			-30.349			-5.058
8303.000			-30.345			-5.057
8404.000			-30.340			-5.057
8505.000			-30.335			-5.056
8604.000			-30.327			-5.055
8704.000			-30.324			-5.054
8805.000			-30.318			-5.053
8904.000			-30.314			-5.052
9003.000			-30.310			-5.052
9105.000			-30.306			-5.051
9204.000			-30.300			-5.050
9304.000			-30.295			-5.049
9405.000			-30.288			-5.048
9504.000			-30.284			-5.047
9604.000			-30.280			-5.047
9703.000			-30.276			-5.046
9804.000			-30.273			-5.045
9905.000			-30.268			-5.045
10004.000			-30.263			-5.044
10104.000			-30.257			-5.043
10204.000			-30.253			-5.042
10304.000			-30.249			-5.041
10404.000			-30.244			-5.041
10505.000			-30.240			-5.040
10604.000			-30.237			-5.039
10704.000			-30.234			-5.039
10805.000			-30.227			-5.038
10903.000			-30.223			-5.037
11004.000			-30.220			-5.037
11105.000			-30.216			-5.036
11204.000			-30.213			-5.036
11304.000			-30.210			-5.035
11404.000			-30.205			-5.034
11504.000			-30.199			-5.033
11604.000			-30.196			-5.033
11705.000			-30.192			-5.032
11804.000			-30.189			-5.032
11904.000			-30.186			-5.031
12005.000			-30.183			-5.031
12103.000			-30.179			-5.030
12204.000			-30.176			-5.029
12305.000			-30.169			-5.028
12404.000			-30.167			-5.028
12504.000			-30.164			-5.027
12604.000			-30.159			-5.027
12704.000			-30.155			-5.026
12803.000			-30.154			-5.026
12905.000			-30.150			-5.025
13004.000			-30.145			-5.024
13105.000			-30.141			-5.024
13204.000			-30.138			-5.023
13303.000			-30.135			-5.023
13405.000			-30.131			-5.022
13504.000			-30.128			-5.021
13604.000			-30.126			-5.021
13705.000			-30.121			-5.020
13804.000			-30.117			-5.020
13904.000			-30.114			-5.019
14004.000			-30.111			-5.019
14104.000			-30.109			-5.018
14204.000			-30.105			-5.018
14305.000			-30.103			-5.017
14404.000			-30.101			-5.017
14503.000			-30.095			-5.016
14605.000			-30.093			-5.016
14704.000			-30.090			-5.015
14804.000			-30.087			-5.015
14905.000			-30.084			-5.014
15004.000			-30.082			-5.014
15104.000			-30.079			-5.013
15204.000			-30.073			-5.012
15304.000			-30.071			-5.012
15404.000			-30.068			-5.011
15505.000			-30.066			-5.011
15604.000			-30.064			-5.011
15704.000			-30.062			-5.010
15805.000			-30.059			-5.010
15903.000			-30.053			-5.009
16004.000			-30.051			-5.009
16105.000			-30.048			-5.008
16204.000			-30.045			-5.008
16305.000			-30.043			-5.007
16403.000			-30.040			-5.007
16504.000			-30.039			-5.006
16605.000			-30.033			-5.006
16704.000			-30.031			-5.005
16804.000			-30.028			-5.005
16905.000			-30.027			-5.005
17004.000			-30.025			-5.004
17103.000			-30.021			-5.003
17205.000			-30.018			-5.003
17304.000			-30.016			-5.003
17404.000			-30.012			-5.002
17505.000			-30.009			-5.002
17604.000			-30.007			-5.001
17704.000			-30.005			-5.001
17804.000			-30.003			-5.001
17904.000			-30.001			-5.000
18004.000			-29.999			-5.000
18105.000			-29.994			-4.999
18204.000			-29.991			-4.999
18303.000			-29.989			-4.998
18405.000			-29.987			-4.998
18504.000			-29.985			-4.998
18604.000			-29.983			-4.997
18705.000			-29.981			-4.997
18804.000			-29.976			-4.996
18904.000			-29.974			-4.996
19005.000			-29.972			-4.995
19104.000			-29.971			-4.995
19203.000			-29.969			-4.995
19305.000			-29.966			-4.994
19404.000			-29.964			-4.994
19505.000			-29.959			-4.993
19604.000			-29.957			-4.993
19704.000			-29.956			-4.993
19805.000			-29.954			-4.992
19903.000			-29.951			-4.992
20004.000			-29.949			-4.991
20105.000			-29.947			-4.991
20204.000			-29.946			-4.991
20304.000			-29.941			-4.990
20405.000			-29.939			-4.990
20504.000			-29.936			-4.989
20603.000			-29.934			-4.989
20705.000			-29.933			-4.989
20804.000			-29.932			-4.989
20904.000			-29.929			-4.988
21005.000			-29.925			-4.988
21104.000			-29.924			-4.987
21204.000			-29.921			-4.987
21304.000			-29.919			-4.986
21404.000			-29.917			-4.986
21504.000			-29.915			-4.986
21605.000			-29.913			-4.986
21704.000			-29.910			-4.985
21804.000			-29.909			-4.985
21905.000			-29.906			-4.984
22003.000			-29.904			-4.984
22104.000			-29.902			-4.984
22205.000			-29.899			-4.983
22304.000			-29.898			-4.983
22404.000			-29.897			-4.983
22504.000			-29.893			-4.982
22604.000			-29.891			-4.982
22703.000			-29.890			-4.982
22804.000			-29.887			-4.981
22904.000			-29.885			-4.981
23005.000			-29.884			-4.981
23104.000			-29.883			-4.981
23204.000			-29.878			-4.980
23305.000			-29.876			-4.979
23403.000			-29.874			-4.979
23504.000			-29.873			-4.979
23605.000			-29.871			-4.979
23704.000			-29.868			-4.978
23804.000			-29.867			-4.978
23905.000			-29.864			-4.977
24004.000			-29.862			-4.977
24103.000			-29.861			-4.977
24205.000			-29.860			-4.977
24304.000			-29.858			-4.976
24404.000			-29.856			-4.976
24505.000			-29.853			-4.975
24604.000			-29.850			-4.975
24704.000			-29.848			-4.975
24804.000			-29.846			-4.974
24904.000			-29.843			-4.974
25004.000			-29.843			-4.974
25105.000			-29.842			-4.974
25204.000			-29.840			-4.973
25304.000			-29.839			-4.973
25405.000			-29.836			-4.973
25503.000			-29.834			-4.972
25604.000			-29.832			-4.972
25705.000			-29.831			-4.972
25804.000			-29.829			-4.971
25905.000			-29.827			-4.971
26004.000			-29.826			-4.971
26104.000			-29.823			-4.970
26204.000			-29.820			-4.970
26304.000			-29.819			-4.970
26404.000			-29.816			-4.969
26505.000			-29.816			-4.969
26604.000			-29.815			-4.969
26704.000			-29.812			-4.969
26805.000			-29.810			-4.968
26903.000			-29.809			-4.968
27004.000			-29.807			-4.968
27105.000			-29.804			-4.967
27204.000			-29.803			-4.967
27304.000			-29.802			-4.967
27405.000			-29.801			-4.967
27504.000			-29.798			-4.966
27603.000			-29.796			-4.966
27705.000			-29.795			-4.966
27804.000			-29.793			-4.966
27904.000			-29.791			-4.965
28005.000			-29.790			-4.965
28104.000			-29.788			-4.965
28204.000			-29.787			-4.965
28304.000			-29.785			-4.964
28404.000			-29.783			-4.964
28504.000			-29.781			-4.964
28605.000			-29.780			-4.963
28704.000			-29.778			-4.963
28804.000			-29.778			-4.963
28905.000			-29.775			-4.963
29003.000			-29.772			-4.962
29105.000			-29.772			-4.962
29204.000			-29.770			-4.962
29304.000			-29.768			-4.961
29405.000			-29.766			-4.961
29504.000			-29.764			-4.961
29604.000			-29.763			-4.961
29704.000			-29.760			-4.960
29804.000			-29.759			-4.960
29903.000			-29.758			-4.960
30005.000			-29.757			-4.959
30104.000			-29.754			-4.959
30204.000			-29.753			-4.959
30305.000			-29.753			-4.959
30404.000			-29.751			-4.959
30504.000			-29.747			-4.958
30604.000			-29.746			-4.958
30704.000			-29.745			-4.958
30804.000			-29.744			-4.957
30905.000			-29.742			-4.957
31004.000			-29.741			-4.957
31103.000			-29.739			-4.957
31205.000			-29.737			-4.956
31304.000			-29.736			-4.956
31404.000			-29.736			-4.956
31505.000			-29.733			-4.955
31604.000			-29.732			-4.955
31704.000			-29.730			-4.955
31804.000			-29.729			-4.955
31904.000			-29.726			-4.954
32003.000			-29.725			-4.954
32105.000			-29.723			-4.954
32204.000			-29.722			-4.954
32305.000			-29.720			-4.953
32404.000			-29.719			-4.953
32503.000			-29.717			-4.953
32605.000			-29.716			-4.953
32704.000			-29.715			-4.952
32804.000			-29.714			-4.952
32905.000			-29.712			-4.952
33004.000			-29.710			-4.952
33104.000			-29.710			-4.952
33204.000			-29.709			-4.951
33304.000			-29.707			-4.951
33404.000			-29.705			-4.951
33505.000			-29.703			-4.951
33604.000			-29.702			-4.950
33704.000			-29.700			-4.950
33805.000			-29.699			-4.950
33903.000			-29.698			-4.950
34004.000			-29.697			-4.950
34105.000			-29.695			-4.949
34204.000			-29.694			-4.949
34304.000			-29.692			-4.949
34405.000			-29.691			-4.948
34504.000			-29.690			-4.948
34603.000			-29.688			-4.948
34705.000			-29.687			-4.948
34804.000			-29.685			-4.948
34904.000			-29.684			-4.947
35005.000			-29.682			-4.947
35104.000			-29.681			-4.947
35204.000			-29.680			-4.947
35303.000			-29.679			-4.946
35404.000			-29.677			-4.946
35503.000			-29.675			-4.946
35604.000			-29.674			-4.946
35704.000			-29.673			-4.945
35805.000			-29.671			-4.945
35904.000			-29.670			-4.945
36004.000			-29.670			-4.945
36105.000			-29.668			-4.945
36203.000			-29.667			-4.944
36304.000			-29.664			-4.944
36405.000			-29.663			-4.944
36504.000			-29.662			-4.944
36604.000			-29.660			-4.943
36705.000			-29.659			-4.943
36804.000			-29.659			-4.943
36903.000			-29.657			-4.943
37005.000			-29.654			-4.942
37104.000			-29.654			-4.942
37204.000			-29.652			-4.942
37305.000			-29.651			-4.942
37404.000			-29.650			-4.942
37504.000			-29.650			-4.942
37604.000			-29.649			-4.941
37704.000			-29.648			-4.941
37804.000			-29.646			-4.941
37905.000			-29.643			-4.941
38004.000			-29.642			-4.940
38104.000			-29.641			-4.940
38205.000			-29.641			-4.940
38303.000			-29.639			-4.940
38404.000			-29.638			-4.940
38505.000			-29.636			-4.939
38604.000			-29.635			-4.939
38705.000			-29.633			-4.939
38804.000			-29.633			-4.939
38904.000			-29.632			-4.939
39004.000			-29.630			-4.938
39104.000			-29.630			-4.938
39204.000			-29.627			-4.938
39305.000			-29.626			-4.938
39404.000			-29.625			-4.937
39504.000			-29.624			-4.937
39605.000			-29.624			-4.937
39703.000			-29.623			-4.937
39804.000			-29.621			-4.937
39905.000			-29.618			-4.936
40004.000			-29.618			-4.936
40104.000			-29.617			-4.936
40205.000			-29.616			-4.936
40304.000			-29.614			-4.936
40403.000			-29.613			-4.936
40505.000			-29.613			-4.935
40604.000			-29.612			-4.935
40704.000			-29.610			-4.935
40805.000			-29.609			-4.935
40904.000			-29.608			-4.935
41004.000			-29.606			-4.934
41104.000			-29.605			-4.934
41204.000			-29.603			-4.934
41304.000			-29.602			-4.934
41405.000			-29.601			-4.934
41504.000			-29.601			-4.933
41603.000			-29.600			-4.933
41705.000			-29.598			-4.933
41804.000			-29.597			-4.933
41905.000			-29.596			-4.933
42004.000			-29.596			-4.933
42104.000			-29.593			-4.932
42205.000			-29.592			-4.932
42303.000			-29.592			-4.932
42404.000			-29.589			-4.931
42504.000			-29.588			-4.931
42604.000			-29.588			-4.931
42704.000			-29.587			-4.931
42805.000			-29.585			-4.931
42904.000			-29.584			-4.931
43004.000			-29.583			-4.931
43105.000			-29.582			-4.930
43203.000			-29.581			-4.930
43304.000			-29.579			-4.930
43405.000			-29.578			-4.930
43504.000			-29.578			-4.930
43604.000			-29.576			-4.929
43705.000			-29.574			-4.929
43804.000			-29.574			-4.929
43903.000			-29.573			-4.929
44005.000			-29.571			-4.929
44104.000			-29.570			-4.928
44204.000			-29.569			-4.928
44305.000			-29.568			-4.928
44404.000			-29.567			-4.928
44504.000			-29.566			-4.928
44604.000			-29.566			-4.928
44704.000			-29.564			-4.927
44804.000			-29.563			-4.927
44904.000			-29.563			-4.927
45004.000			-29.561			-4.927
45105.000			-29.559			-4.926
45204.000			-29.558			-4.926
45303.000			-29.558			-4.926
45405.000			-29.556			-4.926
45504.000			-29.555			-4.926
45604.000			-29.554			-4.926
45705.000			-29.553			-4.926
45804.000			-29.552			-4.925
45904.000			-29.551			-4.925
46004.000			-29.550			-4.925
46104.000			-29.550			-4.925
46204.000			-29.549			-4.925
46305.000			-29.548			-4.925
46404.000			-29.546			-4.924
46504.000			-29.544			-4.924
46605.000			-29.543			-4.924
46703.000			-29.541			-4.924
46804.000			-29.541			-4.924
46905.000			-29.541			-4.924
47004.000			-29.540			-4.923
47104.000			-29.539			-4.923
47205.000			-29.537			-4.923
47304.000			-29.536			-4.923
47403.000			-29.535			-4.923
47505.000			-29.535			-4.922
47604.000			-29.534			-4.922
47704.000			-29.533			-4.922
47805.000			-29.533			-4.922
47904.000			-29.530			-4.922
48004.000			-29.530			-4.922
48103.000			-29.529			-4.921
48204.000			-29.528			-4.921
48305.000			-29.527			-4.921
48404.000			-29.526			-4.921
48504.000			-29.524			-4.921
48605.000			-29.523			-4.920
48704.000			-29.522			-4.920
48803.000			-29.521			-4.920
48905.000			-29.519			-4.920
49004.000			-29.518			-4.920
49104.000			-29.518			-4.920
49205.000			-29.517			-4.919
49304.000			-29.517			-4.919
49404.000			-29.514			-4.919
49504.000			-29.513			-4.919
49604.000			-29.513			-4.919
49704.000			-29.511			-4.919
49805.000			-29.511			-4.918
49904.000			-29.510			-4.918
50004.000			-29.509			-4.918
50105.000			-29.507			-4.918
50203.000			-29.506			-4.918
50304.000			-29.505			-4.918
50405.000			-29.504			-4.917
50504.000			-29.503			-4.917
50604.000			-29.503			-4.917
50704.000			-29.502			-4.917
50804.000			-29.502			-4.917
50904.000			-29.500			-4.917
51005.000			-29.500			-4.917
51104.000			-29.498			-4.916
51204.000			-29.497			-4.916
51305.000			-29.496			-4.916
51403.000			-29.495			-4.916
51505.000			-29.495			-4.916
51603.000			-29.493			-4.915
51704.000			-29.491			-4.915
51805.000			-29.491			-4.915
51904.000			-29.490			-4.915
52004.000			-29.489			-4.915
52104.000			-29.488			-4.915
52204.000			-29.487			-4.915
52303.000			-29.486			-4.914
52405.000			-29.485			-4.914
52504.000			-29.485			-4.914
52604.000			-29.484			-4.914
52705.000			-29.482			-4.914
52804.000			-29.482			-4.914
52904.000			-29.482			-4.914
53004.000			-29.479			-4.913
53104.000			-29.479			-4.913
53204.000			-29.478			-4.913
53305.000			-29.477			-4.913
53404.000			-29.476			-4.913
53504.000			-29.475			-4.913
53605.000			-29.473			-4.912
53703.000			-29.473			-4.912
53804.000			-29.474			-4.912
53905.000			-29.472			-4.912
54004.000			-29.471			-4.912
54104.000			-29.470			-4.912
54205.000			-29.469			-4.912
54304.000			-29.469			-4.911
54403.000			-29.467			-4.911
54505.000			-29.466			-4.911
54604.000			-29.465			-4.911
54705.000			-29.465			-4.911
54804.000			-29.464			-4.911
54904.000			-29.463			-4.911
55005.000			-29.462			-4.910
55103.000			-29.461			-4.910
55204.000			-29.461			-4.910
55305.000			-29.459			-4.910
55404.000			-29.459			-4.910
55504.000			-29.458			-4.910
55605.000			-29.457			-4.909
55704.000			-29.456			-4.909
55803.000			-29.455			-4.909
55905.000			-29.455			-4.909
56004.000			-29.453			-4.909
56104.000			-29.451			-4.909
56205.000			-29.451			-4.909
56304.000			-29.452			-4.909
56404.000			-29.451			-4.908
56504.000			-29.450			-4.908
56604.000			-29.448			-4.908
56704.000			-29.447			-4.908
56805.000			-29.447			-4.908
56904.000			-29.446			-4.908
57004.000			-29.445			-4.907
57105.000			-29.444			-4.907
57203.000			-29.443			-4.907
57304.000			-29.443			-4.907
57405.000			-29.441			-4.907
57504.000			-29.440			-4.907
57604.000			-29.439			-4.906
57704.000			-29.438			-4.906
57804.000			-29.438			-4.906
57903.000			-29.437			-4.906
58004.000			-29.435			-4.906
58104.000			-29.435			-4.906
58205.000			-29.434			-4.906
58304.000			-29.434			-4.906
58404.000			-29.432			-4.905
58505.000			-29.432			-4.905
58603.000			-29.430			-4.905
58704.000			-29.430			-4.905
58805.000			-29.428			-4.905
58904.000			-29.428			-4.905
59004.000			-29.427			-4.905
59105.000			-29.426			-4.904
59204.000			-29.426			-4.904
59303.000			-29.425			-4.904
59405.000			-29.425			-4.904
59504.000			-29.423			-4.904
59604.000			-29.422			-4.904
59705.000			-29.422			-4.904
59804.000			-29.421			-4.903
59904.000			-29.420			-4.903
60004.000			-29.420			-4.903
60104.000			-29.419			-4.903
60204.000			-29.419			-4.903
60305.000			-29.416			-4.903
60404.000			-29.416			-4.903
60504.000			-29.415			-4.903
60605.000			-29.415			-4.902
60703.000			-29.414			-4.902
60804.000			-29.412			-4.902
60905.000			-29.413			-4.902
61004.000			-29.410			-4.902
61105.000			-29.410			-4.902
61204.000			-29.409			-4.902
61304.000			-29.409			-4.901
61404.000			-29.408			-4.901
61504.000			-29.407			-4.901
61604.000			-29.407			-4.901
61705.000			-29.405			-4.901
61804.000			-29.404			-4.901
61903.000			-29.403			-4.900
62005.000			-29.402			-4.900
62104.000			-29.401			-4.900
62204.000			-29.401			-4.900
62305.000			-29.401			-4.900
62404.000			-29.399			-4.900
62504.000			-29.397			-4.900
62604.000			-29.396			-4.899
62704.000			-29.396			-4.899
62804.000			-29.396			-4.899
62905.000			-29.395			-4.899
63004.000			-29.395			-4.899
63104.000			-29.393			-4.899
63205.000			-29.392			-4.899
63303.000			-29.392			-4.899
63404.000			-29.391			-4.898
63505.000			-29.390			-4.898
63604.000			-29.389			-4.898
63704.000			-29.389			-4.898
63805.000			-29.388			-4.898
63904.000			-29.387			-4.898
64004.000			-29.386			-4.898
64105.000			-29.387			-4.898
64203.000			-29.386			-4.898
64305.000			-29.384			-4.897
64404.000			-29.384			-4.897
64504.000			-29.384			-4.897
64605.000			-29.383			-4.897
64704.000			-29.381			-4.897
64804.000			-29.381			-4.897
64904.000			-29.380			-4.897
65004.000			-29.379			-4.897
65104.000			-29.378			-4.896
65205.000			-29.378			-4.896
65304.000			-29.379			-4.896
65404.000			-29.376			-4.896
65505.000			-29.376			-4.896
65603.000			-29.375			-4.896
65704.000			-29.374			-4.896
65805.000			-29.374			-4.896
65904.000			-29.373			-4.896
66004.000			-29.373			-4.895
66105.000			-29.369			-4.895
66204.000			-29.369			-4.895
66303.000			-29.369			-4.895
66405.000			-29.369			-4.895
66504.000			-29.368			-4.895
66604.000			-29.367			-4.895
66705.000			-29.366			-4.894
66804.000			-29.365			-4.894
66904.000			-29.364			-4.894
67004.000			-29.365			-4.894
67104.000			-29.364			-4.894
67204.000			-29.363			-4.894
67304.000			-29.362			-4.894
67404.000			-29.360			-4.893
67505.000			-29.360			-4.893
67604.000			-29.358			-4.893
67703.000			-29.359			-4.893
67805.000			-29.358			-4.893
67904.000			-29.357			-4.893
68004.000			-29.356			-4.893
68105.000			-29.355			-4.893
68204.000			-29.355			-4.892
68304.000			-29.353			-4.892
68404.000			-29.353			-4.892
68504.000			-29.352			-4.892
68603.000			-29.352			-4.892
68705.000			-29.352			-4.892
