# Acquired on 26/01/2024 10:27:50 
# SPIDER: Creep_-3mm_HM077x145x38AA-1
# CREEP MEASUREMENT

# time [ms]		force [N]		stiffness [N/mm]
1.000			12.457			-4.152
104.000			13.365			-4.455
203.000			13.637			-4.546
305.000			13.618			-4.539
404.000			13.579			-4.526
504.000			13.531			-4.510
605.000			13.511			-4.504
703.000			13.494			-4.498
804.000			13.480			-4.493
905.000			13.466			-4.489
1004.000			13.454			-4.485
1104.000			13.442			-4.481
1204.000			13.421			-4.474
1304.000			13.412			-4.471
1404.000			13.403			-4.468
1505.000			13.394			-4.465
1604.000			13.386			-4.462
1704.000			13.378			-4.459
1805.000			13.370			-4.457
1903.000			13.364			-4.455
2005.000			13.350			-4.450
2104.000			13.344			-4.448
2204.000			13.338			-4.446
2305.000			13.333			-4.444
2404.000			13.326			-4.442
2504.000			13.321			-4.440
2605.000			13.316			-4.439
2704.000			13.306			-4.435
2804.000			13.302			-4.434
2905.000			13.295			-4.432
3004.000			13.291			-4.430
3103.000			13.288			-4.429
3205.000			13.284			-4.428
3304.000			13.279			-4.426
3404.000			13.271			-4.424
3505.000			13.266			-4.422
3604.000			13.263			-4.421
3704.000			13.260			-4.420
3805.000			13.256			-4.419
3904.000			13.253			-4.418
4004.000			13.249			-4.416
4105.000			13.246			-4.415
4204.000			13.240			-4.413
4303.000			13.237			-4.412
4405.000			13.235			-4.412
4504.000			13.231			-4.410
4604.000			13.228			-4.409
4705.000			13.226			-4.409
4804.000			13.222			-4.407
4904.000			13.216			-4.405
5004.000			13.214			-4.405
5104.000			13.211			-4.404
5205.000			13.208			-4.403
5304.000			13.206			-4.402
5404.000			13.203			-4.401
5504.000			13.200			-4.400
5604.000			13.195			-4.398
5704.000			13.192			-4.397
5805.000			13.190			-4.397
5904.000			13.188			-4.396
6004.000			13.185			-4.395
6105.000			13.183			-4.394
6203.000			13.181			-4.394
6304.000			13.177			-4.392
6405.000			13.172			-4.391
6504.000			13.170			-4.390
6604.000			13.170			-4.390
6704.000			13.168			-4.389
6804.000			13.165			-4.388
6904.000			13.161			-4.387
7005.000			13.159			-4.386
7104.000			13.156			-4.385
7204.000			13.155			-4.385
7305.000			13.152			-4.384
7403.000			13.150			-4.383
7504.000			13.148			-4.383
7605.000			13.146			-4.382
7704.000			13.145			-4.382
7804.000			13.141			-4.380
7904.000			13.139			-4.380
8004.000			13.136			-4.379
8104.000			13.134			-4.378
8205.000			13.132			-4.377
8304.000			13.131			-4.377
8405.000			13.129			-4.376
8504.000			13.127			-4.376
8603.000			13.125			-4.375
8705.000			13.123			-4.374
8804.000			13.120			-4.373
8904.000			13.118			-4.373
9005.000			13.117			-4.372
9103.000			13.116			-4.372
9204.000			13.114			-4.371
9305.000			13.110			-4.370
9404.000			13.109			-4.370
9504.000			13.108			-4.369
9605.000			13.106			-4.369
9704.000			13.105			-4.368
9803.000			13.104			-4.368
9905.000			13.102			-4.367
10004.000			13.099			-4.366
10104.000			13.098			-4.366
10205.000			13.096			-4.365
10303.000			13.095			-4.365
10404.000			13.093			-4.364
10505.000			13.091			-4.364
10604.000			13.090			-4.363
10704.000			13.088			-4.363
10805.000			13.086			-4.362
10904.000			13.084			-4.361
11003.000			13.083			-4.361
11105.000			13.082			-4.361
11204.000			13.080			-4.360
11304.000			13.079			-4.360
11405.000			13.078			-4.359
11504.000			13.075			-4.358
11605.000			13.073			-4.358
11703.000			13.071			-4.357
11804.000			13.071			-4.357
11905.000			13.069			-4.356
12004.000			13.068			-4.356
12104.000			13.067			-4.356
12204.000			13.063			-4.354
12304.000			13.063			-4.354
12404.000			13.061			-4.354
12505.000			13.059			-4.353
12604.000			13.058			-4.353
12704.000			13.057			-4.352
12805.000			13.055			-4.352
12903.000			13.052			-4.351
13004.000			13.052			-4.351
13105.000			13.050			-4.350
13204.000			13.049			-4.350
13304.000			13.047			-4.349
13405.000			13.046			-4.349
13504.000			13.045			-4.348
13603.000			13.044			-4.348
13705.000			13.040			-4.347
13804.000			13.040			-4.347
13904.000			13.038			-4.346
14005.000			13.038			-4.346
14103.000			13.037			-4.346
14204.000			13.036			-4.345
14305.000			13.035			-4.345
14404.000			13.033			-4.344
14504.000			13.031			-4.344
14605.000			13.031			-4.344
14704.000			13.030			-4.343
14803.000			13.027			-4.342
14904.000			13.026			-4.342
15004.000			13.025			-4.342
15105.000			13.023			-4.341
15204.000			13.021			-4.340
15304.000			13.021			-4.340
15405.000			13.019			-4.340
15503.000			13.019			-4.340
15604.000			13.018			-4.339
15705.000			13.017			-4.339
15804.000			13.016			-4.339
15904.000			13.014			-4.338
16004.000			13.013			-4.338
16104.000			13.012			-4.337
16204.000			13.011			-4.337
16305.000			13.009			-4.336
16404.000			13.009			-4.336
16504.000			13.009			-4.336
16605.000			13.006			-4.335
16703.000			13.005			-4.335
16804.000			13.004			-4.335
16905.000			13.003			-4.334
17004.000			13.002			-4.334
17104.000			13.001			-4.334
17204.000			13.000			-4.333
17304.000			12.999			-4.333
17404.000			12.998			-4.333
17505.000			12.996			-4.332
17604.000			12.996			-4.332
17704.000			12.996			-4.332
17805.000			12.994			-4.331
17904.000			12.993			-4.331
18005.000			12.992			-4.331
18103.000			12.991			-4.330
18204.000			12.990			-4.330
18305.000			12.989			-4.330
18404.000			12.988			-4.329
18504.000			12.987			-4.329
18605.000			12.986			-4.329
18704.000			12.985			-4.328
18803.000			12.983			-4.328
18905.000			12.982			-4.327
19004.000			12.981			-4.327
19104.000			12.980			-4.327
19205.000			12.979			-4.326
19304.000			12.978			-4.326
19404.000			12.978			-4.326
19504.000			12.976			-4.325
19604.000			12.975			-4.325
19704.000			12.974			-4.325
19805.000			12.974			-4.325
19904.000			12.973			-4.324
20004.000			12.973			-4.324
20105.000			12.972			-4.324
20203.000			12.970			-4.323
20304.000			12.970			-4.323
20405.000			12.970			-4.323
20504.000			12.969			-4.323
20604.000			12.967			-4.322
20704.000			12.966			-4.322
20804.000			12.966			-4.322
20903.000			12.966			-4.322
21005.000			12.963			-4.321
21104.000			12.962			-4.321
21205.000			12.961			-4.320
21304.000			12.960			-4.320
21403.000			12.960			-4.320
21505.000			12.959			-4.320
21604.000			12.958			-4.319
21704.000			12.956			-4.319
21805.000			12.955			-4.318
21904.000			12.956			-4.319
22004.000			12.956			-4.319
22104.000			12.955			-4.318
22204.000			12.953			-4.318
22304.000			12.952			-4.317
22405.000			12.951			-4.317
22504.000			12.951			-4.317
22604.000			12.949			-4.316
22705.000			12.949			-4.316
22803.000			12.948			-4.316
22904.000			12.948			-4.316
23005.000			12.947			-4.316
23104.000			12.946			-4.315
23204.000			12.945			-4.315
23305.000			12.944			-4.315
23404.000			12.945			-4.315
23503.000			12.944			-4.315
23605.000			12.942			-4.314
23704.000			12.942			-4.314
23804.000			12.940			-4.313
23905.000			12.940			-4.313
24004.000			12.940			-4.313
24104.000			12.937			-4.312
24204.000			12.937			-4.312
24304.000			12.937			-4.312
24405.000			12.936			-4.312
24504.000			12.935			-4.312
24604.000			12.934			-4.311
24705.000			12.934			-4.311
24804.000			12.933			-4.311
24903.000			12.932			-4.311
25005.000			12.932			-4.311
25104.000			12.931			-4.310
25204.000			12.931			-4.310
25305.000			12.930			-4.310
25403.000			12.929			-4.310
25504.000			12.928			-4.309
25605.000			12.927			-4.309
25704.000			12.927			-4.309
25804.000			12.926			-4.309
25905.000			12.925			-4.308
26004.000			12.925			-4.308
26103.000			12.923			-4.308
26205.000			12.924			-4.308
26304.000			12.923			-4.308
26404.000			12.922			-4.307
26505.000			12.922			-4.307
26604.000			12.922			-4.307
26704.000			12.920			-4.307
26804.000			12.919			-4.306
26904.000			12.918			-4.306
27004.000			12.918			-4.306
27105.000			12.917			-4.306
27204.000			12.917			-4.306
27304.000			12.917			-4.306
27405.000			12.916			-4.305
27503.000			12.915			-4.305
27605.000			12.913			-4.304
27704.000			12.913			-4.304
27804.000			12.912			-4.304
27905.000			12.911			-4.304
28004.000			12.911			-4.304
28104.000			12.911			-4.304
28204.000			12.910			-4.303
28304.000			12.910			-4.303
28404.000			12.909			-4.303
28505.000			12.908			-4.303
28604.000			12.907			-4.302
28704.000			12.907			-4.302
28805.000			12.906			-4.302
28903.000			12.906			-4.302
29004.000			12.905			-4.302
29105.000			12.905			-4.302
29204.000			12.903			-4.301
29304.000			12.902			-4.301
29404.000			12.902			-4.301
29504.000			12.901			-4.300
29603.000			12.901			-4.300
29705.000			12.900			-4.300
29804.000			12.899			-4.300
29904.000			12.899			-4.300
30005.000			12.899			-4.300
30104.000			12.899			-4.300
30204.000			12.897			-4.299
30304.000			12.896			-4.299
30404.000			12.896			-4.299
30504.000			12.895			-4.298
30605.000			12.895			-4.298
30704.000			12.893			-4.298
30803.000			12.892			-4.297
30904.000			12.892			-4.297
31003.000			12.893			-4.298
31105.000			12.891			-4.297
31204.000			12.892			-4.297
31304.000			12.891			-4.297
31405.000			12.889			-4.296
31503.000			12.888			-4.296
31604.000			12.889			-4.296
31705.000			12.888			-4.296
31804.000			12.887			-4.296
31904.000			12.885			-4.295
32005.000			12.885			-4.295
32104.000			12.885			-4.295
32203.000			12.885			-4.295
32305.000			12.883			-4.294
32404.000			12.884			-4.295
32504.000			12.883			-4.294
32605.000			12.882			-4.294
32704.000			12.882			-4.294
32804.000			12.881			-4.294
32904.000			12.881			-4.294
33004.000			12.880			-4.293
33104.000			12.879			-4.293
33205.000			12.879			-4.293
33304.000			12.879			-4.293
33404.000			12.877			-4.292
33505.000			12.877			-4.292
33603.000			12.876			-4.292
33704.000			12.876			-4.292
33805.000			12.875			-4.292
33904.000			12.876			-4.292
34005.000			12.875			-4.292
34104.000			12.874			-4.291
34204.000			12.873			-4.291
34304.000			12.872			-4.291
34404.000			12.872			-4.291
34504.000			12.872			-4.291
34605.000			12.872			-4.291
34704.000			12.872			-4.291
34804.000			12.871			-4.290
34905.000			12.869			-4.290
35003.000			12.869			-4.290
35104.000			12.869			-4.290
35205.000			12.868			-4.289
35304.000			12.869			-4.290
35404.000			12.868			-4.289
35505.000			12.867			-4.289
35604.000			12.866			-4.289
35703.000			12.866			-4.289
35805.000			12.866			-4.289
35904.000			12.865			-4.288
36004.000			12.864			-4.288
36105.000			12.863			-4.288
36204.000			12.862			-4.287
36304.000			12.861			-4.287
36404.000			12.861			-4.287
36504.000			12.861			-4.287
36604.000			12.861			-4.287
36705.000			12.860			-4.287
36804.000			12.859			-4.286
36904.000			12.858			-4.286
37005.000			12.859			-4.286
37103.000			12.858			-4.286
37205.000			12.857			-4.286
37304.000			12.857			-4.286
37404.000			12.856			-4.285
37505.000			12.856			-4.285
37604.000			12.854			-4.285
37704.000			12.855			-4.285
37804.000			12.854			-4.285
37904.000			12.854			-4.285
38004.000			12.854			-4.285
38105.000			12.852			-4.284
38204.000			12.852			-4.284
38304.000			12.852			-4.284
38405.000			12.852			-4.284
38503.000			12.850			-4.283
38604.000			12.850			-4.283
38705.000			12.850			-4.283
38804.000			12.850			-4.283
38904.000			12.849			-4.283
39005.000			12.849			-4.283
39104.000			12.849			-4.283
39203.000			12.848			-4.283
39305.000			12.848			-4.283
39404.000			12.848			-4.283
39504.000			12.848			-4.283
39605.000			12.847			-4.282
39704.000			12.846			-4.282
39804.000			12.846			-4.282
39904.000			12.846			-4.282
40004.000			12.845			-4.282
40104.000			12.845			-4.282
40205.000			12.844			-4.281
40304.000			12.845			-4.282
40403.000			12.844			-4.281
40504.000			12.845			-4.282
40604.000			12.845			-4.282
40705.000			12.843			-4.281
40804.000			12.843			-4.281
40904.000			12.843			-4.281
41005.000			12.843			-4.281
41103.000			12.843			-4.281
41204.000			12.842			-4.281
41305.000			12.842			-4.281
41404.000			12.841			-4.280
41504.000			12.841			-4.280
41605.000			12.841			-4.280
41704.000			12.840			-4.280
41803.000			12.840			-4.280
41905.000			12.839			-4.280
42004.000			12.839			-4.280
42104.000			12.838			-4.279
42205.000			12.837			-4.279
42304.000			12.838			-4.279
42404.000			12.837			-4.279
42504.000			12.838			-4.279
42604.000			12.838			-4.279
42704.000			12.838			-4.279
42805.000			12.837			-4.279
42904.000			12.835			-4.278
43004.000			12.835			-4.278
43105.000			12.835			-4.278
43204.000			12.835			-4.278
43304.000			12.834			-4.278
43405.000			12.833			-4.278
43504.000			12.834			-4.278
43605.000			12.833			-4.278
43703.000			12.832			-4.277
43804.000			12.832			-4.277
43905.000			12.832			-4.277
44004.000			12.831			-4.277
44104.000			12.830			-4.277
44205.000			12.830			-4.277
44304.000			12.830			-4.277
44403.000			12.828			-4.276
44505.000			12.828			-4.276
44604.000			12.828			-4.276
44704.000			12.827			-4.276
44805.000			12.826			-4.275
44904.000			12.825			-4.275
45004.000			12.825			-4.275
45104.000			12.824			-4.275
45204.000			12.824			-4.275
45304.000			12.824			-4.275
45405.000			12.824			-4.275
45504.000			12.822			-4.274
45604.000			12.822			-4.274
45705.000			12.822			-4.274
45803.000			12.818			-4.273
45904.000			12.820			-4.273
46005.000			12.820			-4.273
46104.000			12.819			-4.273
46204.000			12.819			-4.273
46305.000			12.819			-4.273
46404.000			12.819			-4.273
46503.000			12.817			-4.272
46605.000			12.817			-4.272
46704.000			12.817			-4.272
46805.000			12.818			-4.273
46904.000			12.817			-4.272
47004.000			12.817			-4.272
47105.000			12.817			-4.272
47203.000			12.817			-4.272
47304.000			12.816			-4.272
47405.000			12.816			-4.272
47504.000			12.816			-4.272
47604.000			12.815			-4.272
47705.000			12.814			-4.271
47804.000			12.814			-4.271
47903.000			12.815			-4.272
48005.000			12.815			-4.272
48104.000			12.815			-4.272
48204.000			12.813			-4.271
48305.000			12.812			-4.271
48404.000			12.812			-4.271
48504.000			12.813			-4.271
48604.000			12.812			-4.271
48704.000			12.811			-4.270
48804.000			12.810			-4.270
48905.000			12.811			-4.270
49004.000			12.811			-4.270
49103.000			12.810			-4.270
49205.000			12.810			-4.270
49304.000			12.810			-4.270
49404.000			12.810			-4.270
49505.000			12.809			-4.270
49604.000			12.809			-4.270
49704.000			12.808			-4.269
49804.000			12.807			-4.269
49904.000			12.807			-4.269
50003.000			12.806			-4.269
50104.000			12.806			-4.269
50204.000			12.805			-4.268
50305.000			12.805			-4.268
50404.000			12.805			-4.268
50503.000			12.805			-4.268
50605.000			12.805			-4.268
50704.000			12.804			-4.268
50804.000			12.803			-4.268
50905.000			12.802			-4.267
51004.000			12.802			-4.267
51104.000			12.801			-4.267
51204.000			12.800			-4.267
51304.000			12.799			-4.266
51404.000			12.799			-4.266
51505.000			12.799			-4.266
51604.000			12.799			-4.266
51704.000			12.797			-4.266
51805.000			12.796			-4.265
51903.000			12.796			-4.265
52004.000			12.795			-4.265
52105.000			12.795			-4.265
52204.000			12.794			-4.265
52304.000			12.794			-4.265
52404.000			12.793			-4.264
52504.000			12.792			-4.264
52603.000			12.792			-4.264
52705.000			12.792			-4.264
52804.000			12.791			-4.264
52904.000			12.791			-4.264
53005.000			12.791			-4.264
53103.000			12.789			-4.263
53205.000			12.788			-4.263
53304.000			12.789			-4.263
53404.000			12.790			-4.263
53505.000			12.789			-4.263
53604.000			12.788			-4.263
53704.000			12.787			-4.262
53804.000			12.787			-4.262
53904.000			12.786			-4.262
54003.000			12.786			-4.262
54105.000			12.786			-4.262
54204.000			12.785			-4.262
54304.000			12.785			-4.262
54405.000			12.784			-4.261
54503.000			12.784			-4.261
54604.000			12.784			-4.261
54705.000			12.784			-4.261
54804.000			12.784			-4.261
54904.000			12.783			-4.261
55005.000			12.784			-4.261
55104.000			12.784			-4.261
55203.000			12.783			-4.261
55305.000			12.782			-4.261
55404.000			12.782			-4.261
55504.000			12.781			-4.260
55605.000			12.781			-4.260
55704.000			12.782			-4.261
55804.000			12.781			-4.260
55904.000			12.780			-4.260
56004.000			12.781			-4.260
56104.000			12.781			-4.260
56205.000			12.781			-4.260
56304.000			12.781			-4.260
56405.000			12.781			-4.260
56504.000			12.780			-4.260
56603.000			12.780			-4.260
56705.000			12.779			-4.260
56804.000			12.779			-4.260
56904.000			12.779			-4.260
57005.000			12.780			-4.260
57104.000			12.780			-4.260
57204.000			12.780			-4.260
57304.000			12.778			-4.259
57404.000			12.777			-4.259
57504.000			12.778			-4.259
57605.000			12.777			-4.259
57704.000			12.776			-4.259
57804.000			12.776			-4.259
57905.000			12.776			-4.259
58003.000			12.775			-4.258
58104.000			12.775			-4.258
58205.000			12.776			-4.259
58304.000			12.775			-4.258
58404.000			12.775			-4.258
58505.000			12.775			-4.258
58604.000			12.775			-4.258
58703.000			12.774			-4.258
58805.000			12.774			-4.258
58904.000			12.774			-4.258
59004.000			12.773			-4.258
59105.000			12.773			-4.258
59204.000			12.773			-4.258
59304.000			12.772			-4.257
59404.000			12.773			-4.258
59504.000			12.772			-4.257
59605.000			12.772			-4.257
59704.000			12.770			-4.257
59804.000			12.770			-4.257
59905.000			12.770			-4.257
60004.000			12.770			-4.257
60103.000			12.770			-4.257
60205.000			12.769			-4.256
60304.000			12.769			-4.256
60404.000			12.769			-4.256
60505.000			12.769			-4.256
60604.000			12.768			-4.256
60704.000			12.767			-4.256
60804.000			12.767			-4.256
60904.000			12.766			-4.255
61004.000			12.766			-4.255
61105.000			12.765			-4.255
61204.000			12.765			-4.255
61304.000			12.764			-4.255
61405.000			12.763			-4.254
61503.000			12.763			-4.254
61604.000			12.763			-4.254
61705.000			12.763			-4.254
61804.000			12.762			-4.254
61904.000			12.762			-4.254
62005.000			12.761			-4.254
62104.000			12.761			-4.254
62203.000			12.761			-4.254
62305.000			12.759			-4.253
62404.000			12.759			-4.253
62504.000			12.759			-4.253
62605.000			12.759			-4.253
62704.000			12.758			-4.253
62805.000			12.758			-4.253
62903.000			12.757			-4.252
63004.000			12.756			-4.252
63105.000			12.756			-4.252
63204.000			12.755			-4.252
63304.000			12.755			-4.252
63404.000			12.755			-4.252
63504.000			12.754			-4.251
63603.000			12.754			-4.251
63705.000			12.754			-4.251
63804.000			12.753			-4.251
63904.000			12.753			-4.251
64005.000			12.751			-4.250
64103.000			12.752			-4.251
64204.000			12.752			-4.251
64305.000			12.753			-4.251
64404.000			12.752			-4.251
64504.000			12.751			-4.250
64605.000			12.751			-4.250
64704.000			12.751			-4.250
64803.000			12.749			-4.250
64905.000			12.749			-4.250
65004.000			12.749			-4.250
65104.000			12.749			-4.250
65205.000			12.748			-4.249
65304.000			12.748			-4.249
65404.000			12.748			-4.249
65504.000			12.747			-4.249
65604.000			12.747			-4.249
65704.000			12.748			-4.249
65805.000			12.747			-4.249
65904.000			12.747			-4.249
66005.000			12.747			-4.249
66104.000			12.746			-4.249
66203.000			12.745			-4.248
66305.000			12.744			-4.248
66404.000			12.744			-4.248
66504.000			12.743			-4.248
66605.000			12.743			-4.248
66704.000			12.744			-4.248
66804.000			12.744			-4.248
66904.000			12.744			-4.248
67004.000			12.743			-4.248
67103.000			12.743			-4.248
67205.000			12.742			-4.247
67304.000			12.741			-4.247
67404.000			12.742			-4.247
67505.000			12.741			-4.247
67604.000			12.742			-4.247
67704.000			12.741			-4.247
67804.000			12.741			-4.247
67904.000			12.740			-4.247
68004.000			12.740			-4.247
68105.000			12.739			-4.246
68204.000			12.738			-4.246
68304.000			12.739			-4.246
68405.000			12.739			-4.246
68503.000			12.739			-4.246
68604.000			12.738			-4.246
68705.000			12.737			-4.246
68804.000			12.738			-4.246
68904.000			12.737			-4.246
69005.000			12.737			-4.246
69104.000			12.737			-4.246
69203.000			12.735			-4.245
69304.000			12.735			-4.245
69404.000			12.736			-4.245
69505.000			12.736			-4.245
69604.000			12.736			-4.245
69704.000			12.736			-4.245
69805.000			12.734			-4.245
69903.000			12.735			-4.245
70004.000			12.734			-4.245
70105.000			12.733			-4.244
70204.000			12.733			-4.244
70304.000			12.733			-4.244
70405.000			12.733			-4.244
70504.000			12.732			-4.244
70603.000			12.732			-4.244
70705.000			12.733			-4.244
70804.000			12.733			-4.244
70904.000			12.732			-4.244
71005.000			12.732			-4.244
71104.000			12.730			-4.243
71204.000			12.731			-4.244
