# Acquired on 08/01/2024 15:36:19 
# SPIDER: Creep_-4mm_07714532B-2
# CREEP MEASUREMENT

# time [ms]		force [N]		stiffness [N/mm]
1.000			10.455			-2.614
100.000			11.299			-2.825
201.000			11.640			-2.910
300.000			11.668			-2.917
400.000			11.619			-2.905
501.000			11.580			-2.895
601.000			11.522			-2.881
701.000			11.498			-2.875
801.000			11.478			-2.869
900.000			11.460			-2.865
1000.000			11.443			-2.861
1101.000			11.428			-2.857
1200.000			11.415			-2.854
1302.000			11.390			-2.847
1401.000			11.378			-2.844
1500.000			11.367			-2.842
1601.000			11.358			-2.840
1700.000			11.349			-2.837
1800.000			11.340			-2.835
1901.000			11.332			-2.833
2000.000			11.318			-2.830
2101.000			11.310			-2.827
2202.000			11.302			-2.826
2300.000			11.295			-2.824
2400.000			11.290			-2.822
2501.000			11.284			-2.821
2600.000			11.277			-2.819
2700.000			11.266			-2.817
2801.000			11.260			-2.815
2901.000			11.254			-2.814
3001.000			11.249			-2.812
3101.000			11.246			-2.812
3200.000			11.241			-2.810
3300.000			11.236			-2.809
3401.000			11.232			-2.808
3500.000			11.223			-2.806
3601.000			11.220			-2.805
3702.000			11.216			-2.804
3800.000			11.212			-2.803
3900.000			11.207			-2.802
4001.000			11.203			-2.801
4100.000			11.201			-2.800
4200.000			11.194			-2.799
4302.000			11.190			-2.797
4401.000			11.187			-2.797
4500.000			11.184			-2.796
4600.000			11.180			-2.795
4700.000			11.177			-2.794
4801.000			11.174			-2.794
4900.000			11.169			-2.792
5000.000			11.166			-2.791
5102.000			11.163			-2.791
5201.000			11.160			-2.790
5300.000			11.156			-2.789
5401.000			11.154			-2.789
5500.000			11.152			-2.788
5600.000			11.148			-2.787
5701.000			11.144			-2.786
5801.000			11.142			-2.785
5901.000			11.139			-2.785
6001.000			11.137			-2.784
6100.000			11.134			-2.784
6200.000			11.132			-2.783
6301.000			11.129			-2.782
6400.000			11.126			-2.781
6500.000			11.125			-2.781
6602.000			11.122			-2.781
6701.000			11.120			-2.780
6800.000			11.118			-2.780
6901.000			11.116			-2.779
7000.000			11.114			-2.779
7100.000			11.108			-2.777
7201.000			11.107			-2.777
7301.000			11.106			-2.776
7401.000			11.104			-2.776
7501.000			11.101			-2.775
7600.000			11.099			-2.775
7700.000			11.098			-2.774
7800.000			11.095			-2.774
7900.000			11.093			-2.773
8001.000			11.091			-2.773
8101.000			11.089			-2.772
8201.000			11.089			-2.772
8301.000			11.087			-2.772
8400.000			11.084			-2.771
8500.000			11.081			-2.770
8601.000			11.079			-2.770
8700.000			11.079			-2.770
8801.000			11.077			-2.769
8902.000			11.075			-2.769
9000.000			11.075			-2.769
9100.000			11.073			-2.768
9201.000			11.071			-2.768
9300.000			11.067			-2.767
9400.000			11.066			-2.766
9501.000			11.064			-2.766
9601.000			11.063			-2.766
9701.000			11.062			-2.766
9801.000			11.061			-2.765
9900.000			11.059			-2.765
10000.000			11.057			-2.764
10101.000			11.055			-2.764
10200.000			11.053			-2.763
10301.000			11.052			-2.763
10402.000			11.051			-2.763
10500.000			11.050			-2.762
10600.000			11.048			-2.762
10701.000			11.044			-2.761
10800.000			11.044			-2.761
10900.000			11.043			-2.761
11000.000			11.042			-2.760
11101.000			11.041			-2.760
11202.000			11.040			-2.760
11300.000			11.038			-2.759
11400.000			11.037			-2.759
11501.000			11.035			-2.759
11600.000			11.033			-2.758
11700.000			11.033			-2.758
11802.000			11.031			-2.758
11901.000			11.031			-2.758
12000.000			11.030			-2.757
12101.000			11.028			-2.757
12200.000			11.026			-2.756
12300.000			11.024			-2.756
12401.000			11.023			-2.756
12500.000			11.021			-2.755
12601.000			11.020			-2.755
12702.000			11.021			-2.755
12800.000			11.020			-2.755
12900.000			11.017			-2.754
13001.000			11.016			-2.754
13100.000			11.014			-2.754
13200.000			11.013			-2.753
13301.000			11.013			-2.753
13401.000			11.011			-2.753
13501.000			11.011			-2.753
13601.000			11.009			-2.752
13700.000			11.008			-2.752
13800.000			11.007			-2.752
13901.000			11.006			-2.752
14000.000			11.005			-2.751
14102.000			11.003			-2.751
14201.000			11.003			-2.751
14300.000			11.003			-2.751
14401.000			11.000			-2.750
14500.000			10.998			-2.750
14600.000			10.998			-2.749
14701.000			10.998			-2.749
14800.000			10.997			-2.749
14901.000			10.996			-2.749
15002.000			10.996			-2.749
15100.000			10.993			-2.748
15200.000			10.990			-2.748
15301.000			10.991			-2.748
15400.000			10.991			-2.748
15500.000			10.989			-2.747
15601.000			10.988			-2.747
15701.000			10.988			-2.747
15801.000			10.986			-2.746
15901.000			10.985			-2.746
16000.000			10.983			-2.746
16100.000			10.983			-2.746
16201.000			10.983			-2.746
16300.000			10.982			-2.745
16400.000			10.982			-2.745
16502.000			10.980			-2.745
16601.000			10.980			-2.745
16701.000			10.977			-2.744
16801.000			10.975			-2.744
16900.000			10.976			-2.744
17000.000			10.976			-2.744
17101.000			10.975			-2.744
17200.000			10.974			-2.743
17300.000			10.971			-2.743
17402.000			10.971			-2.743
17501.000			10.972			-2.743
17601.000			10.971			-2.743
17700.000			10.971			-2.743
17800.000			10.970			-2.742
17901.000			10.968			-2.742
18000.000			10.966			-2.741
18100.000			10.965			-2.741
18202.000			10.965			-2.741
18301.000			10.964			-2.741
18400.000			10.963			-2.741
18501.000			10.963			-2.741
18600.000			10.962			-2.741
18700.000			10.960			-2.740
18801.000			10.959			-2.740
18900.000			10.959			-2.740
19001.000			10.959			-2.740
19102.000			10.957			-2.739
19200.000			10.958			-2.739
19300.000			10.958			-2.740
19401.000			10.955			-2.739
19500.000			10.954			-2.739
19600.000			10.954			-2.739
19701.000			10.954			-2.738
19801.000			10.952			-2.738
19901.000			10.951			-2.738
20001.000			10.952			-2.738
20100.000			10.952			-2.738
20200.000			10.949			-2.737
20301.000			10.948			-2.737
20400.000			10.948			-2.737
20500.000			10.948			-2.737
20602.000			10.947			-2.737
20701.000			10.946			-2.736
20801.000			10.946			-2.736
20900.000			10.943			-2.736
21000.000			10.943			-2.736
21101.000			10.942			-2.736
21200.000			10.942			-2.736
21300.000			10.943			-2.736
21402.000			10.942			-2.735
21501.000			10.941			-2.735
21600.000			10.941			-2.735
21701.000			10.940			-2.735
21800.000			10.939			-2.735
21900.000			10.937			-2.734
22001.000			10.936			-2.734
22101.000			10.937			-2.734
22201.000			10.936			-2.734
22301.000			10.935			-2.734
22400.000			10.934			-2.734
22500.000			10.934			-2.733
22601.000			10.932			-2.733
22700.000			10.932			-2.733
22800.000			10.932			-2.733
22902.000			10.931			-2.733
23001.000			10.931			-2.733
23100.000			10.930			-2.732
23201.000			10.929			-2.732
23300.000			10.928			-2.732
23400.000			10.927			-2.732
23501.000			10.927			-2.732
23600.000			10.927			-2.732
23702.000			10.926			-2.732
23801.000			10.926			-2.732
23901.000			10.924			-2.731
24001.000			10.924			-2.731
24100.000			10.925			-2.731
24200.000			10.924			-2.731
24301.000			10.923			-2.731
24400.000			10.923			-2.731
24501.000			10.922			-2.730
24602.000			10.922			-2.730
24700.000			10.921			-2.730
24800.000			10.921			-2.730
24901.000			10.920			-2.730
25000.000			10.920			-2.730
25100.000			10.919			-2.730
25201.000			10.918			-2.729
25301.000			10.916			-2.729
25401.000			10.916			-2.729
25501.000			10.915			-2.729
25600.000			10.915			-2.729
25700.000			10.914			-2.728
25801.000			10.913			-2.728
25900.000			10.912			-2.728
26000.000			10.913			-2.728
26102.000			10.912			-2.728
26201.000			10.912			-2.728
26300.000			10.912			-2.728
26401.000			10.911			-2.728
26500.000			10.911			-2.728
26600.000			10.909			-2.727
26701.000			10.909			-2.727
26800.000			10.907			-2.727
26902.000			10.907			-2.727
27001.000			10.908			-2.727
27100.000			10.907			-2.727
27201.000			10.907			-2.727
27300.000			10.906			-2.727
27400.000			10.906			-2.727
27501.000			10.905			-2.726
27600.000			10.904			-2.726
27701.000			10.904			-2.726
27802.000			10.903			-2.726
27900.000			10.902			-2.726
28000.000			10.902			-2.725
28101.000			10.902			-2.726
28200.000			10.901			-2.725
28300.000			10.901			-2.725
28401.000			10.899			-2.725
28501.000			10.899			-2.725
28601.000			10.899			-2.725
28701.000			10.897			-2.724
28800.000			10.897			-2.724
28900.000			10.897			-2.724
29001.000			10.897			-2.724
29100.000			10.896			-2.724
29200.000			10.896			-2.724
29302.000			10.896			-2.724
29401.000			10.895			-2.724
29500.000			10.894			-2.724
29601.000			10.895			-2.724
29700.000			10.894			-2.723
29800.000			10.894			-2.723
29901.000			10.893			-2.723
30000.000			10.891			-2.723
30102.000			10.891			-2.723
30201.000			10.891			-2.723
30300.000			10.891			-2.723
30401.000			10.890			-2.722
30500.000			10.889			-2.722
30600.000			10.888			-2.722
30701.000			10.887			-2.722
30800.000			10.888			-2.722
30901.000			10.888			-2.722
31002.000			10.888			-2.722
31101.000			10.886			-2.722
31200.000			10.885			-2.721
31301.000			10.885			-2.721
31400.000			10.885			-2.721
31500.000			10.885			-2.721
31601.000			10.884			-2.721
31701.000			10.885			-2.721
31801.000			10.884			-2.721
31901.000			10.884			-2.721
32000.000			10.883			-2.721
32100.000			10.882			-2.721
32201.000			10.882			-2.720
32300.000			10.881			-2.720
32400.000			10.880			-2.720
32502.000			10.880			-2.720
32601.000			10.880			-2.720
32700.000			10.880			-2.720
32801.000			10.880			-2.720
32900.000			10.879			-2.720
33000.000			10.878			-2.720
33101.000			10.878			-2.719
33200.000			10.877			-2.719
33302.000			10.876			-2.719
33401.000			10.876			-2.719
33501.000			10.876			-2.719
33601.000			10.876			-2.719
33700.000			10.876			-2.719
33800.000			10.875			-2.719
33901.000			10.875			-2.719
34000.000			10.873			-2.718
34100.000			10.873			-2.718
34202.000			10.873			-2.718
34301.000			10.872			-2.718
34400.000			10.873			-2.718
34501.000			10.873			-2.718
34600.000			10.872			-2.718
34700.000			10.871			-2.718
34801.000			10.871			-2.718
34901.000			10.870			-2.718
35001.000			10.870			-2.717
35101.000			10.869			-2.717
35200.000			10.868			-2.717
35300.000			10.869			-2.717
35401.000			10.869			-2.717
35500.000			10.869			-2.717
35600.000			10.867			-2.717
35702.000			10.867			-2.717
35801.000			10.867			-2.717
35901.000			10.867			-2.717
36001.000			10.866			-2.717
36100.000			10.865			-2.716
36200.000			10.864			-2.716
36301.000			10.864			-2.716
36400.000			10.865			-2.716
36500.000			10.864			-2.716
36602.000			10.864			-2.716
36701.000			10.864			-2.716
36801.000			10.863			-2.716
36900.000			10.861			-2.715
37000.000			10.862			-2.716
37101.000			10.861			-2.715
37200.000			10.860			-2.715
37300.000			10.860			-2.715
37402.000			10.860			-2.715
37501.000			10.861			-2.715
37600.000			10.859			-2.715
37701.000			10.859			-2.715
37800.000			10.859			-2.715
37900.000			10.858			-2.715
38001.000			10.858			-2.714
38100.000			10.858			-2.714
38201.000			10.858			-2.715
38302.000			10.858			-2.714
38400.000			10.856			-2.714
38500.000			10.856			-2.714
38601.000			10.856			-2.714
38700.000			10.855			-2.714
38800.000			10.855			-2.714
38901.000			10.855			-2.714
39001.000			10.855			-2.714
39101.000			10.854			-2.714
39201.000			10.854			-2.713
39300.000			10.854			-2.713
39400.000			10.853			-2.713
39501.000			10.852			-2.713
39600.000			10.852			-2.713
39700.000			10.851			-2.713
39802.000			10.850			-2.713
39901.000			10.851			-2.713
40001.000			10.851			-2.713
40100.000			10.851			-2.713
40200.000			10.850			-2.713
40301.000			10.850			-2.712
40400.000			10.849			-2.712
40500.000			10.849			-2.712
40602.000			10.848			-2.712
40701.000			10.848			-2.712
40800.000			10.847			-2.712
40901.000			10.846			-2.711
41000.000			10.847			-2.712
41100.000			10.847			-2.712
41201.000			10.846			-2.711
41300.000			10.845			-2.711
41401.000			10.845			-2.711
41502.000			10.846			-2.711
41600.000			10.845			-2.711
41700.000			10.845			-2.711
41801.000			10.845			-2.711
41900.000			10.844			-2.711
42000.000			10.843			-2.711
42101.000			10.843			-2.711
42201.000			10.843			-2.711
42301.000			10.843			-2.711
42401.000			10.843			-2.711
42500.000			10.842			-2.711
42600.000			10.842			-2.711
42701.000			10.842			-2.711
42800.000			10.842			-2.711
42902.000			10.841			-2.710
43001.000			10.840			-2.710
43101.000			10.840			-2.710
43201.000			10.840			-2.710
43300.000			10.839			-2.710
43400.000			10.839			-2.710
43501.000			10.839			-2.710
43600.000			10.839			-2.710
43701.000			10.839			-2.710
43802.000			10.838			-2.710
43901.000			10.838			-2.709
44000.000			10.837			-2.709
44101.000			10.837			-2.709
44200.000			10.836			-2.709
44300.000			10.836			-2.709
44401.000			10.836			-2.709
44501.000			10.836			-2.709
44601.000			10.834			-2.709
44701.000			10.834			-2.709
44800.000			10.834			-2.709
44900.000			10.834			-2.709
45001.000			10.835			-2.709
45100.000			10.835			-2.709
45200.000			10.834			-2.709
45302.000			10.833			-2.708
45401.000			10.833			-2.708
45500.000			10.832			-2.708
45601.000			10.832			-2.708
45700.000			10.831			-2.708
45800.000			10.832			-2.708
45901.000			10.831			-2.708
46000.000			10.831			-2.708
46102.000			10.830			-2.708
46201.000			10.830			-2.708
46300.000			10.829			-2.707
46401.000			10.829			-2.707
46500.000			10.829			-2.707
46600.000			10.829			-2.707
46701.000			10.829			-2.707
46800.000			10.828			-2.707
46901.000			10.827			-2.707
47002.000			10.827			-2.707
47100.000			10.827			-2.707
47200.000			10.827			-2.707
47301.000			10.826			-2.706
47400.000			10.825			-2.706
47500.000			10.825			-2.706
47601.000			10.825			-2.706
47701.000			10.825			-2.706
47801.000			10.825			-2.706
47901.000			10.825			-2.706
48000.000			10.824			-2.706
48100.000			10.823			-2.706
48201.000			10.823			-2.706
48300.000			10.823			-2.706
48400.000			10.823			-2.706
48502.000			10.822			-2.706
48601.000			10.822			-2.705
48700.000			10.823			-2.706
48801.000			10.823			-2.706
48900.000			10.822			-2.705
49000.000			10.821			-2.705
49101.000			10.821			-2.705
49200.000			10.821			-2.705
49302.000			10.821			-2.705
49401.000			10.821			-2.705
49500.000			10.820			-2.705
49601.000			10.819			-2.705
49700.000			10.819			-2.705
49800.000			10.819			-2.705
49901.000			10.819			-2.705
50000.000			10.818			-2.705
50101.000			10.819			-2.705
50202.000			10.819			-2.705
50300.000			10.819			-2.705
50400.000			10.818			-2.704
50501.000			10.817			-2.704
50600.000			10.816			-2.704
50700.000			10.818			-2.704
50801.000			10.816			-2.704
50901.000			10.816			-2.704
51001.000			10.816			-2.704
51101.000			10.816			-2.704
51200.000			10.815			-2.704
51300.000			10.814			-2.703
51401.000			10.813			-2.703
51500.000			10.812			-2.703
51600.000			10.813			-2.703
51702.000			10.812			-2.703
51801.000			10.813			-2.703
51900.000			10.813			-2.703
52001.000			10.813			-2.703
52100.000			10.813			-2.703
52200.000			10.812			-2.703
52301.000			10.811			-2.703
52401.000			10.811			-2.703
52502.000			10.811			-2.703
52601.000			10.811			-2.703
52700.000			10.810			-2.703
52801.000			10.810			-2.703
52900.000			10.811			-2.703
53000.000			10.810			-2.702
53101.000			10.809			-2.702
53201.000			10.809			-2.702
53301.000			10.809			-2.702
53401.000			10.809			-2.702
53500.000			10.808			-2.702
53600.000			10.808			-2.702
53701.000			10.808			-2.702
53800.000			10.808			-2.702
53900.000			10.807			-2.702
54002.000			10.806			-2.702
54101.000			10.806			-2.702
54200.000			10.806			-2.702
54301.000			10.805			-2.701
54400.000			10.807			-2.702
54500.000			10.806			-2.701
54601.000			10.806			-2.701
54700.000			10.806			-2.701
54801.000			10.806			-2.701
54902.000			10.805			-2.701
55000.000			10.804			-2.701
55100.000			10.804			-2.701
55201.000			10.804			-2.701
55300.000			10.803			-2.701
55400.000			10.803			-2.701
55501.000			10.804			-2.701
55601.000			10.804			-2.701
55702.000			10.803			-2.701
55800.000			10.802			-2.701
55900.000			10.801			-2.700
56001.000			10.801			-2.700
56100.000			10.801			-2.700
56200.000			10.802			-2.701
56301.000			10.802			-2.700
56401.000			10.801			-2.700
56501.000			10.800			-2.700
56601.000			10.801			-2.700
56700.000			10.801			-2.700
56800.000			10.800			-2.700
56901.000			10.800			-2.700
57000.000			10.799			-2.700
57100.000			10.799			-2.700
57202.000			10.798			-2.700
57301.000			10.798			-2.700
57400.000			10.798			-2.700
57501.000			10.798			-2.700
57600.000			10.799			-2.700
57700.000			10.798			-2.700
57801.000			10.798			-2.700
57900.000			10.797			-2.699
58001.000			10.797			-2.699
58102.000			10.797			-2.699
58200.000			10.796			-2.699
58300.000			10.796			-2.699
58401.000			10.796			-2.699
58500.000			10.796			-2.699
58600.000			10.795			-2.699
58701.000			10.796			-2.699
58801.000			10.795			-2.699
58902.000			10.794			-2.698
59001.000			10.793			-2.698
59100.000			10.793			-2.698
59201.000			10.793			-2.698
59300.000			10.793			-2.698
59400.000			10.793			-2.698
59501.000			10.793			-2.698
59600.000			10.792			-2.698
59701.000			10.792			-2.698
59802.000			10.792			-2.698
59900.000			10.792			-2.698
60000.000			10.793			-2.698
60101.000			10.792			-2.698
60200.000			10.791			-2.698
60300.000			10.791			-2.698
60401.000			10.791			-2.698
60501.000			10.790			-2.698
60601.000			10.790			-2.698
60701.000			10.789			-2.697
60800.000			10.791			-2.698
60900.000			10.790			-2.697
61001.000			10.790			-2.697
61100.000			10.789			-2.697
61200.000			10.789			-2.697
61302.000			10.788			-2.697
61401.000			10.789			-2.697
61500.000			10.788			-2.697
61601.000			10.788			-2.697
61700.000			10.787			-2.697
61800.000			10.787			-2.697
61901.000			10.786			-2.697
62000.000			10.787			-2.697
62102.000			10.787			-2.697
62201.000			10.787			-2.697
62300.000			10.788			-2.697
62401.000			10.786			-2.696
62500.000			10.785			-2.696
62600.000			10.786			-2.696
62701.000			10.786			-2.697
62800.000			10.785			-2.696
62901.000			10.785			-2.696
63002.000			10.786			-2.696
63100.000			10.785			-2.696
63200.000			10.785			-2.696
63301.000			10.783			-2.696
63400.000			10.784			-2.696
63500.000			10.784			-2.696
63601.000			10.784			-2.696
63701.000			10.783			-2.696
63801.000			10.783			-2.696
63901.000			10.783			-2.696
64000.000			10.783			-2.696
64100.000			10.783			-2.696
64201.000			10.782			-2.696
64300.000			10.783			-2.696
64400.000			10.783			-2.696
64502.000			10.782			-2.695
64601.000			10.782			-2.695
64700.000			10.781			-2.695
64801.000			10.779			-2.695
64900.000			10.780			-2.695
65000.000			10.780			-2.695
65101.000			10.781			-2.695
65200.000			10.781			-2.695
65302.000			10.781			-2.695
65401.000			10.780			-2.695
65500.000			10.780			-2.695
65601.000			10.778			-2.695
65700.000			10.778			-2.694
65800.000			10.778			-2.695
65901.000			10.779			-2.695
66000.000			10.778			-2.694
66101.000			10.777			-2.694
66202.000			10.778			-2.694
66301.000			10.778			-2.694
66400.000			10.778			-2.694
66501.000			10.778			-2.694
66600.000			10.778			-2.694
66700.000			10.777			-2.694
66801.000			10.777			-2.694
66900.000			10.778			-2.694
67001.000			10.778			-2.694
67102.000			10.777			-2.694
67200.000			10.777			-2.694
67300.000			10.777			-2.694
67401.000			10.774			-2.694
67500.000			10.775			-2.694
67600.000			10.775			-2.694
67701.000			10.775			-2.694
67801.000			10.775			-2.694
67901.000			10.774			-2.694
68001.000			10.775			-2.694
68100.000			10.774			-2.694
68200.000			10.774			-2.693
68301.000			10.774			-2.693
68400.000			10.773			-2.693
68500.000			10.774			-2.693
68602.000			10.774			-2.693
68701.000			10.773			-2.693
68802.000			10.773			-2.693
68900.000			10.772			-2.693
69000.000			10.773			-2.693
69101.000			10.773			-2.693
69200.000			10.773			-2.693
69300.000			10.773			-2.693
69401.000			10.772			-2.693
69501.000			10.771			-2.693
69601.000			10.771			-2.693
69701.000			10.770			-2.693
69800.000			10.771			-2.693
69900.000			10.771			-2.693
70001.000			10.771			-2.693
70100.000			10.770			-2.692
70200.000			10.770			-2.692
70302.000			10.770			-2.692
70401.000			10.769			-2.692
70500.000			10.770			-2.692
70601.000			10.769			-2.692
70700.000			10.769			-2.692
70800.000			10.770			-2.692
70901.000			10.769			-2.692
71000.000			10.769			-2.692
71101.000			10.767			-2.692
71202.000			10.768			-2.692
