# Acquired on 29/01/2024 16:57:41 
# SPIDER: Creep_9mm_HM077x145x38AB-1
# CREEP MEASUREMENT

# time [ms]		force [N]		stiffness [N/mm]
1.000			-28.194			-3.133
104.000			-28.522			-3.169
204.000			-28.543			-3.171
305.000			-28.426			-3.158
404.000			-28.338			-3.149
504.000			-28.274			-3.142
605.000			-28.169			-3.130
703.000			-28.128			-3.125
804.000			-28.090			-3.121
905.000			-28.055			-3.117
1004.000			-28.024			-3.114
1104.000			-27.993			-3.110
1204.000			-27.963			-3.107
1304.000			-27.913			-3.101
1404.000			-27.891			-3.099
1505.000			-27.869			-3.097
1604.000			-27.847			-3.094
1704.000			-27.827			-3.092
1805.000			-27.808			-3.090
1903.000			-27.788			-3.088
2005.000			-27.753			-3.084
2104.000			-27.735			-3.082
2204.000			-27.720			-3.080
2305.000			-27.706			-3.078
2404.000			-27.690			-3.077
2504.000			-27.675			-3.075
2604.000			-27.661			-3.073
2704.000			-27.634			-3.070
2804.000			-27.621			-3.069
2905.000			-27.608			-3.068
3004.000			-27.596			-3.066
3104.000			-27.584			-3.065
3205.000			-27.573			-3.064
3303.000			-27.563			-3.063
3404.000			-27.540			-3.060
3505.000			-27.530			-3.059
3604.000			-27.519			-3.058
3704.000			-27.508			-3.056
3804.000			-27.498			-3.055
3904.000			-27.488			-3.054
4003.000			-27.479			-3.053
4105.000			-27.470			-3.052
4204.000			-27.451			-3.050
4304.000			-27.442			-3.049
4405.000			-27.434			-3.048
4503.000			-27.425			-3.047
4604.000			-27.416			-3.046
4705.000			-27.408			-3.045
4804.000			-27.401			-3.045
4904.000			-27.386			-3.043
5004.000			-27.378			-3.042
5104.000			-27.370			-3.041
5203.000			-27.363			-3.040
5304.000			-27.354			-3.039
5404.000			-27.347			-3.039
5505.000			-27.339			-3.038
5604.000			-27.324			-3.036
5703.000			-27.317			-3.035
5805.000			-27.311			-3.035
5904.000			-27.305			-3.034
6004.000			-27.298			-3.033
6105.000			-27.292			-3.032
6204.000			-27.284			-3.032
6304.000			-27.272			-3.030
6404.000			-27.266			-3.030
6504.000			-27.259			-3.029
6604.000			-27.253			-3.028
6705.000			-27.248			-3.028
6804.000			-27.242			-3.027
6904.000			-27.234			-3.026
7005.000			-27.229			-3.025
7103.000			-27.220			-3.024
7204.000			-27.213			-3.024
7305.000			-27.206			-3.023
7404.000			-27.201			-3.022
7504.000			-27.195			-3.022
7604.000			-27.190			-3.021
7704.000			-27.185			-3.021
7804.000			-27.175			-3.019
7905.000			-27.170			-3.019
8004.000			-27.164			-3.018
8104.000			-27.160			-3.018
8205.000			-27.155			-3.017
8303.000			-27.150			-3.017
8405.000			-27.144			-3.016
8504.000			-27.134			-3.015
8604.000			-27.130			-3.014
8705.000			-27.124			-3.014
8804.000			-27.120			-3.013
8904.000			-27.115			-3.013
9004.000			-27.111			-3.012
9104.000			-27.107			-3.012
9204.000			-27.097			-3.011
9305.000			-27.093			-3.010
9404.000			-27.089			-3.010
9503.000			-27.084			-3.009
9605.000			-27.079			-3.009
9704.000			-27.076			-3.008
9804.000			-27.072			-3.008
9905.000			-27.062			-3.007
10004.000			-27.059			-3.007
10104.000			-27.054			-3.006
10204.000			-27.050			-3.006
10304.000			-27.046			-3.005
10404.000			-27.042			-3.005
10505.000			-27.038			-3.004
10604.000			-27.034			-3.004
10703.000			-27.026			-3.003
10805.000			-27.022			-3.002
10904.000			-27.017			-3.002
11004.000			-27.014			-3.002
11105.000			-27.011			-3.001
11204.000			-27.006			-3.001
11304.000			-27.002			-3.000
11403.000			-26.996			-3.000
11504.000			-26.991			-2.999
11605.000			-26.988			-2.999
11704.000			-26.984			-2.998
11804.000			-26.981			-2.998
11905.000			-26.976			-2.997
12004.000			-26.973			-2.997
12103.000			-26.967			-2.996
12205.000			-26.963			-2.996
12304.000			-26.960			-2.996
12404.000			-26.956			-2.995
12505.000			-26.953			-2.995
12604.000			-26.950			-2.994
12704.000			-26.945			-2.994
12804.000			-26.939			-2.993
12904.000			-26.935			-2.993
13004.000			-26.932			-2.992
13105.000			-26.929			-2.992
13204.000			-26.925			-2.992
13304.000			-26.921			-2.991
13405.000			-26.918			-2.991
13503.000			-26.915			-2.991
13604.000			-26.908			-2.990
13705.000			-26.905			-2.989
13804.000			-26.903			-2.989
13904.000			-26.899			-2.989
14005.000			-26.896			-2.988
14104.000			-26.893			-2.988
14203.000			-26.890			-2.988
14305.000			-26.884			-2.987
14404.000			-26.881			-2.987
14504.000			-26.878			-2.986
14605.000			-26.876			-2.986
14704.000			-26.872			-2.986
14805.000			-26.869			-2.985
14903.000			-26.866			-2.985
15004.000			-26.860			-2.984
15105.000			-26.856			-2.984
15204.000			-26.854			-2.984
15304.000			-26.852			-2.984
15405.000			-26.849			-2.983
15504.000			-26.846			-2.983
15603.000			-26.843			-2.983
15705.000			-26.837			-2.982
15804.000			-26.835			-2.982
15904.000			-26.833			-2.981
16005.000			-26.830			-2.981
16104.000			-26.827			-2.981
16204.000			-26.824			-2.980
16304.000			-26.820			-2.980
16404.000			-26.818			-2.980
16504.000			-26.812			-2.979
16605.000			-26.811			-2.979
16704.000			-26.808			-2.979
16803.000			-26.805			-2.978
16905.000			-26.802			-2.978
17004.000			-26.800			-2.978
17104.000			-26.798			-2.978
17205.000			-26.792			-2.977
17304.000			-26.790			-2.977
17404.000			-26.787			-2.976
17504.000			-26.784			-2.976
17604.000			-26.781			-2.976
17703.000			-26.779			-2.975
17805.000			-26.776			-2.975
17904.000			-26.772			-2.975
18005.000			-26.769			-2.974
18104.000			-26.766			-2.974
18203.000			-26.763			-2.974
18305.000			-26.762			-2.974
18404.000			-26.760			-2.973
18504.000			-26.757			-2.973
18605.000			-26.753			-2.973
18704.000			-26.750			-2.972
18804.000			-26.748			-2.972
18904.000			-26.744			-2.972
19004.000			-26.743			-2.971
19104.000			-26.741			-2.971
19205.000			-26.736			-2.971
19304.000			-26.732			-2.970
19404.000			-26.730			-2.970
19505.000			-26.728			-2.970
19603.000			-26.726			-2.970
19704.000			-26.723			-2.969
19805.000			-26.721			-2.969
19904.000			-26.720			-2.969
20004.000			-26.717			-2.969
20105.000			-26.712			-2.968
20204.000			-26.710			-2.968
20303.000			-26.707			-2.967
20405.000			-26.706			-2.967
20504.000			-26.705			-2.967
20604.000			-26.703			-2.967
20705.000			-26.700			-2.967
20804.000			-26.696			-2.966
20904.000			-26.692			-2.966
21003.000			-26.691			-2.966
21104.000			-26.690			-2.966
21205.000			-26.688			-2.965
21304.000			-26.687			-2.965
21404.000			-26.684			-2.965
21505.000			-26.678			-2.964
21604.000			-26.675			-2.964
21703.000			-26.673			-2.964
21805.000			-26.672			-2.964
21904.000			-26.670			-2.963
22004.000			-26.669			-2.963
22105.000			-26.666			-2.963
22204.000			-26.664			-2.963
22304.000			-26.660			-2.962
22404.000			-26.658			-2.962
22504.000			-26.656			-2.962
22604.000			-26.655			-2.962
22705.000			-26.653			-2.961
22804.000			-26.649			-2.961
22904.000			-26.648			-2.961
23005.000			-26.644			-2.960
23103.000			-26.643			-2.960
23204.000			-26.641			-2.960
23305.000			-26.638			-2.960
23404.000			-26.635			-2.959
23504.000			-26.633			-2.959
23605.000			-26.631			-2.959
23704.000			-26.628			-2.959
23803.000			-26.627			-2.959
23905.000			-26.625			-2.958
24004.000			-26.622			-2.958
24104.000			-26.619			-2.958
24205.000			-26.618			-2.958
24304.000			-26.618			-2.958
24405.000			-26.613			-2.957
24503.000			-26.612			-2.957
24604.000			-26.609			-2.957
24705.000			-26.606			-2.956
24804.000			-26.605			-2.956
24904.000			-26.603			-2.956
25004.000			-26.602			-2.956
25104.000			-26.599			-2.955
25204.000			-26.598			-2.955
25305.000			-26.595			-2.955
25404.000			-26.593			-2.955
25504.000			-26.591			-2.955
25605.000			-26.590			-2.954
25703.000			-26.587			-2.954
25804.000			-26.585			-2.954
25905.000			-26.581			-2.953
26004.000			-26.580			-2.953
26104.000			-26.578			-2.953
26205.000			-26.577			-2.953
26304.000			-26.576			-2.953
26403.000			-26.574			-2.953
26505.000			-26.571			-2.952
26604.000			-26.568			-2.952
26704.000			-26.567			-2.952
26805.000			-26.566			-2.952
26904.000			-26.563			-2.951
27004.000			-26.561			-2.951
27104.000			-26.560			-2.951
27204.000			-26.558			-2.951
27304.000			-26.554			-2.950
27404.000			-26.553			-2.950
27504.000			-26.551			-2.950
27605.000			-26.549			-2.950
27704.000			-26.548			-2.950
27803.000			-26.547			-2.950
27905.000			-26.545			-2.949
28004.000			-26.542			-2.949
28104.000			-26.540			-2.949
28205.000			-26.539			-2.949
28304.000			-26.537			-2.949
28404.000			-26.535			-2.948
28504.000			-26.534			-2.948
28604.000			-26.532			-2.948
28704.000			-26.529			-2.948
28805.000			-26.525			-2.947
28904.000			-26.524			-2.947
29004.000			-26.523			-2.947
29105.000			-26.521			-2.947
29203.000			-26.520			-2.947
29304.000			-26.519			-2.947
29405.000			-26.518			-2.946
29504.000			-26.516			-2.946
29604.000			-26.513			-2.946
29705.000			-26.511			-2.946
29804.000			-26.510			-2.946
29903.000			-26.509			-2.945
30005.000			-26.507			-2.945
30104.000			-26.506			-2.945
30204.000			-26.503			-2.945
30305.000			-26.500			-2.944
30404.000			-26.499			-2.944
30504.000			-26.498			-2.944
30603.000			-26.497			-2.944
30704.000			-26.496			-2.944
30805.000			-26.493			-2.944
30904.000			-26.490			-2.943
31004.000			-26.488			-2.943
31105.000			-26.487			-2.943
31204.000			-26.486			-2.943
31303.000			-26.484			-2.943
31405.000			-26.482			-2.942
31504.000			-26.481			-2.942
31604.000			-26.480			-2.942
31705.000			-26.477			-2.942
31804.000			-26.475			-2.942
31904.000			-26.475			-2.942
32004.000			-26.473			-2.941
32104.000			-26.472			-2.941
32204.000			-26.470			-2.941
32305.000			-26.468			-2.941
32404.000			-26.466			-2.941
32504.000			-26.465			-2.941
32605.000			-26.464			-2.940
32703.000			-26.461			-2.940
32804.000			-26.460			-2.940
32905.000			-26.459			-2.940
33004.000			-26.457			-2.940
33104.000			-26.453			-2.939
33205.000			-26.451			-2.939
33304.000			-26.450			-2.939
33403.000			-26.450			-2.939
33505.000			-26.448			-2.939
33604.000			-26.446			-2.938
33704.000			-26.445			-2.938
33805.000			-26.443			-2.938
33904.000			-26.441			-2.938
34005.000			-26.440			-2.938
34103.000			-26.439			-2.938
34204.000			-26.437			-2.937
34305.000			-26.435			-2.937
34404.000			-26.435			-2.937
34504.000			-26.432			-2.937
34604.000			-26.430			-2.937
34704.000			-26.429			-2.937
34803.000			-26.427			-2.936
34905.000			-26.426			-2.936
35004.000			-26.424			-2.936
35104.000			-26.423			-2.936
35205.000			-26.422			-2.936
35303.000			-26.419			-2.935
35404.000			-26.417			-2.935
35505.000			-26.416			-2.935
35604.000			-26.416			-2.935
35704.000			-26.414			-2.935
35805.000			-26.412			-2.935
35904.000			-26.411			-2.935
36003.000			-26.407			-2.934
36105.000			-26.406			-2.934
36204.000			-26.405			-2.934
36304.000			-26.404			-2.934
36405.000			-26.403			-2.934
36504.000			-26.402			-2.934
36604.000			-26.401			-2.933
36704.000			-26.397			-2.933
36804.000			-26.396			-2.933
36904.000			-26.396			-2.933
37004.000			-26.394			-2.933
37104.000			-26.392			-2.932
37205.000			-26.391			-2.932
37304.000			-26.390			-2.932
37403.000			-26.387			-2.932
37505.000			-26.388			-2.932
37604.000			-26.387			-2.932
37704.000			-26.384			-2.932
37805.000			-26.382			-2.931
37904.000			-26.382			-2.931
38004.000			-26.381			-2.931
38104.000			-26.380			-2.931
38204.000			-26.376			-2.931
38304.000			-26.375			-2.931
38405.000			-26.373			-2.930
38504.000			-26.373			-2.930
38604.000			-26.372			-2.930
38705.000			-26.371			-2.930
38803.000			-26.369			-2.930
38904.000			-26.366			-2.930
39005.000			-26.365			-2.929
39104.000			-26.364			-2.929
39204.000			-26.363			-2.929
39305.000			-26.362			-2.929
39404.000			-26.360			-2.929
39503.000			-26.358			-2.929
39605.000			-26.357			-2.929
39704.000			-26.357			-2.929
39804.000			-26.356			-2.928
39905.000			-26.354			-2.928
40004.000			-26.352			-2.928
40104.000			-26.350			-2.928
40203.000			-26.350			-2.928
40304.000			-26.348			-2.928
40405.000			-26.347			-2.927
40504.000			-26.345			-2.927
40604.000			-26.344			-2.927
40704.000			-26.343			-2.927
40804.000			-26.342			-2.927
40903.000			-26.341			-2.927
41005.000			-26.340			-2.927
41104.000			-26.336			-2.926
41204.000			-26.336			-2.926
41305.000			-26.334			-2.926
41403.000			-26.332			-2.926
41504.000			-26.331			-2.926
41605.000			-26.330			-2.926
41704.000			-26.328			-2.925
41804.000			-26.328			-2.925
41905.000			-26.327			-2.925
42004.000			-26.326			-2.925
42103.000			-26.324			-2.925
42205.000			-26.322			-2.925
42304.000			-26.322			-2.925
42404.000			-26.320			-2.924
42505.000			-26.319			-2.924
42604.000			-26.317			-2.924
42704.000			-26.317			-2.924
42804.000			-26.315			-2.924
42904.000			-26.313			-2.924
43004.000			-26.313			-2.924
43105.000			-26.311			-2.923
43204.000			-26.310			-2.923
43303.000			-26.309			-2.923
43405.000			-26.308			-2.923
43504.000			-26.306			-2.923
43605.000			-26.305			-2.923
43704.000			-26.304			-2.923
43804.000			-26.303			-2.923
43905.000			-26.300			-2.922
44003.000			-26.298			-2.922
44104.000			-26.298			-2.922
44205.000			-26.297			-2.922
44304.000			-26.296			-2.922
44404.000			-26.294			-2.922
44505.000			-26.293			-2.921
44604.000			-26.293			-2.921
44703.000			-26.290			-2.921
44805.000			-26.289			-2.921
44904.000			-26.288			-2.921
45004.000			-26.287			-2.921
45105.000			-26.286			-2.921
45204.000			-26.285			-2.921
45304.000			-26.283			-2.920
45404.000			-26.281			-2.920
45504.000			-26.280			-2.920
45604.000			-26.279			-2.920
45705.000			-26.278			-2.920
45804.000			-26.277			-2.920
45904.000			-26.276			-2.920
46005.000			-26.276			-2.920
46103.000			-26.273			-2.919
46204.000			-26.271			-2.919
46305.000			-26.270			-2.919
46404.000			-26.269			-2.919
46504.000			-26.268			-2.919
46604.000			-26.266			-2.918
46704.000			-26.266			-2.918
46803.000			-26.265			-2.918
46904.000			-26.264			-2.918
47004.000			-26.262			-2.918
47105.000			-26.260			-2.918
47204.000			-26.259			-2.918
47304.000			-26.259			-2.918
47405.000			-26.258			-2.918
47503.000			-26.257			-2.917
47604.000			-26.255			-2.917
47705.000			-26.254			-2.917
47804.000			-26.254			-2.917
47904.000			-26.253			-2.917
48005.000			-26.252			-2.917
48104.000			-26.251			-2.917
48203.000			-26.249			-2.917
48305.000			-26.247			-2.916
48404.000			-26.245			-2.916
48504.000			-26.243			-2.916
48605.000			-26.243			-2.916
48704.000			-26.243			-2.916
48804.000			-26.242			-2.916
48904.000			-26.241			-2.916
49004.000			-26.238			-2.915
49104.000			-26.238			-2.915
49205.000			-26.237			-2.915
49304.000			-26.236			-2.915
49404.000			-26.235			-2.915
49505.000			-26.234			-2.915
49603.000			-26.233			-2.915
49704.000			-26.230			-2.914
49805.000			-26.230			-2.914
49904.000			-26.230			-2.914
50005.000			-26.229			-2.914
50104.000			-26.228			-2.914
50204.000			-26.226			-2.914
50304.000			-26.226			-2.914
50404.000			-26.226			-2.914
50504.000			-26.224			-2.914
50605.000			-26.222			-2.914
50704.000			-26.221			-2.913
50804.000			-26.220			-2.913
50905.000			-26.219			-2.913
51003.000			-26.218			-2.913
51104.000			-26.217			-2.913
51205.000			-26.215			-2.913
51304.000			-26.213			-2.913
51404.000			-26.213			-2.913
51504.000			-26.213			-2.913
51604.000			-26.212			-2.912
51704.000			-26.211			-2.912
51805.000			-26.210			-2.912
51904.000			-26.208			-2.912
52004.000			-26.206			-2.912
52105.000			-26.204			-2.912
52203.000			-26.205			-2.912
52304.000			-26.205			-2.912
52405.000			-26.204			-2.912
52504.000			-26.202			-2.911
52604.000			-26.199			-2.911
52705.000			-26.200			-2.911
52804.000			-26.199			-2.911
52903.000			-26.198			-2.911
53005.000			-26.198			-2.911
53104.000			-26.195			-2.911
53205.000			-26.193			-2.910
53304.000			-26.193			-2.910
53404.000			-26.191			-2.910
53505.000			-26.190			-2.910
53603.000			-26.190			-2.910
53704.000			-26.189			-2.910
53805.000			-26.189			-2.910
53904.000			-26.188			-2.910
54004.000			-26.186			-2.910
54105.000			-26.185			-2.909
54204.000			-26.183			-2.909
54303.000			-26.182			-2.909
54405.000			-26.181			-2.909
54504.000			-26.181			-2.909
54604.000			-26.179			-2.909
54705.000			-26.179			-2.909
54804.000			-26.177			-2.909
54904.000			-26.176			-2.908
55004.000			-26.175			-2.908
55104.000			-26.173			-2.908
55204.000			-26.173			-2.908
55305.000			-26.173			-2.908
55404.000			-26.172			-2.908
55503.000			-26.170			-2.908
55605.000			-26.169			-2.908
55704.000			-26.169			-2.908
55804.000			-26.168			-2.908
55905.000			-26.167			-2.907
56004.000			-26.167			-2.907
56104.000			-26.165			-2.907
56204.000			-26.164			-2.907
56304.000			-26.161			-2.907
56403.000			-26.160			-2.907
56504.000			-26.161			-2.907
56604.000			-26.160			-2.907
56705.000			-26.158			-2.906
56804.000			-26.157			-2.906
56903.000			-26.156			-2.906
57005.000			-26.156			-2.906
57104.000			-26.155			-2.906
57204.000			-26.153			-2.906
57305.000			-26.152			-2.906
57404.000			-26.151			-2.906
57504.000			-26.151			-2.906
57604.000			-26.150			-2.906
57704.000			-26.149			-2.905
57804.000			-26.148			-2.905
57905.000			-26.148			-2.905
58004.000			-26.147			-2.905
58104.000			-26.147			-2.905
58205.000			-26.145			-2.905
58303.000			-26.143			-2.905
58404.000			-26.142			-2.905
58505.000			-26.141			-2.905
58604.000			-26.141			-2.905
58704.000			-26.140			-2.904
58805.000			-26.138			-2.904
58904.000			-26.137			-2.904
59003.000			-26.137			-2.904
59105.000			-26.134			-2.904
59204.000			-26.133			-2.904
59304.000			-26.133			-2.904
59405.000			-26.133			-2.904
59504.000			-26.131			-2.903
59605.000			-26.130			-2.903
59703.000			-26.130			-2.903
59804.000			-26.130			-2.903
59905.000			-26.128			-2.903
60004.000			-26.127			-2.903
60104.000			-26.126			-2.903
60205.000			-26.126			-2.903
60304.000			-26.125			-2.903
60403.000			-26.124			-2.903
60505.000			-26.124			-2.903
60604.000			-26.121			-2.902
60704.000			-26.119			-2.902
60805.000			-26.119			-2.902
60903.000			-26.120			-2.902
61004.000			-26.119			-2.902
61105.000			-26.118			-2.902
61204.000			-26.116			-2.902
61304.000			-26.115			-2.902
61405.000			-26.115			-2.902
61504.000			-26.113			-2.901
61603.000			-26.112			-2.901
61705.000			-26.111			-2.901
61804.000			-26.111			-2.901
61904.000			-26.111			-2.901
62005.000			-26.108			-2.901
62104.000			-26.107			-2.901
62204.000			-26.108			-2.901
62304.000			-26.107			-2.901
62404.000			-26.106			-2.901
62504.000			-26.104			-2.900
62604.000			-26.103			-2.900
62704.000			-26.102			-2.900
62803.000			-26.101			-2.900
62904.000			-26.101			-2.900
63004.000			-26.101			-2.900
63105.000			-26.099			-2.900
63204.000			-26.097			-2.900
63304.000			-26.098			-2.900
63405.000			-26.096			-2.900
63503.000			-26.095			-2.899
63604.000			-26.094			-2.899
63705.000			-26.094			-2.899
63804.000			-26.093			-2.899
63904.000			-26.092			-2.899
64005.000			-26.092			-2.899
64104.000			-26.091			-2.899
64203.000			-26.090			-2.899
64305.000			-26.089			-2.899
64404.000			-26.087			-2.899
64504.000			-26.086			-2.898
64605.000			-26.085			-2.898
64704.000			-26.085			-2.898
64804.000			-26.084			-2.898
64904.000			-26.082			-2.898
65004.000			-26.082			-2.898
65104.000			-26.081			-2.898
65205.000			-26.081			-2.898
65304.000			-26.080			-2.898
65404.000			-26.079			-2.898
65505.000			-26.078			-2.898
65603.000			-26.077			-2.897
65704.000			-26.076			-2.897
65805.000			-26.076			-2.897
65904.000			-26.075			-2.897
66005.000			-26.073			-2.897
66104.000			-26.073			-2.897
66204.000			-26.072			-2.897
66304.000			-26.071			-2.897
66404.000			-26.069			-2.897
66504.000			-26.067			-2.896
66605.000			-26.068			-2.896
66704.000			-26.067			-2.896
66804.000			-26.067			-2.896
66905.000			-26.067			-2.896
67003.000			-26.066			-2.896
67104.000			-26.063			-2.896
67205.000			-26.063			-2.896
67304.000			-26.062			-2.896
67404.000			-26.062			-2.896
67505.000			-26.060			-2.896
67604.000			-26.059			-2.895
67703.000			-26.058			-2.895
67805.000			-26.059			-2.895
67904.000			-26.057			-2.895
68004.000			-26.057			-2.895
68105.000			-26.057			-2.895
68204.000			-26.056			-2.895
68304.000			-26.054			-2.895
68404.000			-26.054			-2.895
68504.000			-26.054			-2.895
68604.000			-26.050			-2.894
68705.000			-26.050			-2.894
