# Acquired on 09/01/2024 12:54:16 
# SPIDER: Creep_8mm_07714532C-2
# CREEP MEASUREMENT

# time [ms]		force [N]		stiffness [N/mm]
0.000			-22.824			-2.853
100.000			-24.309			-3.039
200.000			-24.991			-3.124
302.000			-25.016			-3.127
400.000			-24.916			-3.115
500.000			-24.837			-3.105
601.000			-24.771			-3.096
700.000			-24.713			-3.089
800.000			-24.661			-3.083
902.000			-24.616			-3.077
1001.000			-24.538			-3.067
1100.000			-24.503			-3.063
1201.000			-24.472			-3.059
1300.000			-24.441			-3.055
1400.000			-24.413			-3.052
1501.000			-24.388			-3.048
1600.000			-24.361			-3.045
1702.000			-24.315			-3.039
1801.000			-24.293			-3.037
1900.000			-24.272			-3.034
2001.000			-24.252			-3.032
2100.000			-24.233			-3.029
2200.000			-24.215			-3.027
2301.000			-24.197			-3.025
2401.000			-24.163			-3.020
2501.000			-24.148			-3.019
2601.000			-24.134			-3.017
2700.000			-24.119			-3.015
2800.000			-24.104			-3.013
2901.000			-24.088			-3.011
3000.000			-24.076			-3.009
3100.000			-24.063			-3.008
3202.000			-24.036			-3.005
3301.000			-24.025			-3.003
3400.000			-24.012			-3.002
3501.000			-24.001			-3.000
3600.000			-23.990			-2.999
3700.000			-23.979			-2.997
3801.000			-23.968			-2.996
3900.000			-23.947			-2.993
4001.000			-23.937			-2.992
4102.000			-23.927			-2.991
4200.000			-23.918			-2.990
4300.000			-23.908			-2.989
4401.000			-23.898			-2.987
4500.000			-23.889			-2.986
4600.000			-23.872			-2.984
4702.000			-23.862			-2.983
4801.000			-23.854			-2.982
4900.000			-23.845			-2.981
5000.000			-23.838			-2.980
5100.000			-23.830			-2.979
5201.000			-23.821			-2.978
5300.000			-23.806			-2.976
5400.000			-23.798			-2.975
5502.000			-23.791			-2.974
5601.000			-23.783			-2.973
5700.000			-23.776			-2.972
5801.000			-23.770			-2.971
5900.000			-23.762			-2.970
6000.000			-23.755			-2.969
6101.000			-23.741			-2.968
6200.000			-23.735			-2.967
6301.000			-23.729			-2.966
6402.000			-23.722			-2.965
6500.000			-23.715			-2.964
6600.000			-23.709			-2.964
6701.000			-23.703			-2.963
6800.000			-23.690			-2.961
6900.000			-23.684			-2.960
7001.000			-23.679			-2.960
7101.000			-23.673			-2.959
7201.000			-23.668			-2.958
7301.000			-23.662			-2.958
7400.000			-23.655			-2.957
7500.000			-23.645			-2.956
7601.000			-23.639			-2.955
7700.000			-23.633			-2.954
7801.000			-23.627			-2.953
7902.000			-23.622			-2.953
8000.000			-23.618			-2.952
8100.000			-23.613			-2.952
8200.000			-23.602			-2.950
8300.000			-23.598			-2.950
8401.000			-23.593			-2.949
8500.000			-23.588			-2.949
8601.000			-23.584			-2.948
8702.000			-23.578			-2.947
8800.000			-23.572			-2.947
8900.000			-23.568			-2.946
9001.000			-23.559			-2.945
9100.000			-23.555			-2.944
9200.000			-23.549			-2.944
9301.000			-23.545			-2.943
9401.000			-23.540			-2.943
9501.000			-23.536			-2.942
9601.000			-23.532			-2.941
9700.000			-23.523			-2.940
9800.000			-23.518			-2.940
9901.000			-23.515			-2.939
10000.000			-23.510			-2.939
10100.000			-23.505			-2.938
10202.000			-23.501			-2.938
10300.000			-23.497			-2.937
10400.000			-23.490			-2.936
10501.000			-23.486			-2.936
10600.000			-23.482			-2.935
10700.000			-23.478			-2.935
10801.000			-23.474			-2.934
10901.000			-23.469			-2.934
11001.000			-23.465			-2.933
11101.000			-23.458			-2.932
11200.000			-23.454			-2.932
11300.000			-23.450			-2.931
11400.000			-23.447			-2.931
11500.000			-23.443			-2.930
11601.000			-23.440			-2.930
11701.000			-23.437			-2.930
11801.000			-23.433			-2.929
11901.000			-23.425			-2.928
12000.000			-23.422			-2.928
12100.000			-23.417			-2.927
12201.000			-23.415			-2.927
12300.000			-23.412			-2.926
12400.000			-23.408			-2.926
12502.000			-23.405			-2.926
12601.000			-23.397			-2.925
12700.000			-23.394			-2.924
12801.000			-23.391			-2.924
12900.000			-23.388			-2.923
13000.000			-23.385			-2.923
13101.000			-23.382			-2.923
13200.000			-23.378			-2.922
13301.000			-23.373			-2.922
13402.000			-23.370			-2.921
13500.000			-23.366			-2.921
13600.000			-23.363			-2.920
13701.000			-23.360			-2.920
13800.000			-23.357			-2.920
13900.000			-23.353			-2.919
14001.000			-23.348			-2.919
14101.000			-23.347			-2.918
14201.000			-23.342			-2.918
14301.000			-23.339			-2.917
14400.000			-23.336			-2.917
14500.000			-23.333			-2.917
14600.000			-23.331			-2.916
14700.000			-23.327			-2.916
14802.000			-23.321			-2.915
14901.000			-23.319			-2.915
15001.000			-23.316			-2.914
15101.000			-23.313			-2.914
15200.000			-23.310			-2.914
15300.000			-23.306			-2.913
15401.000			-23.304			-2.913
15500.000			-23.299			-2.912
15601.000			-23.296			-2.912
15702.000			-23.293			-2.912
15800.000			-23.291			-2.911
15900.000			-23.289			-2.911
16001.000			-23.286			-2.911
16100.000			-23.282			-2.910
16200.000			-23.277			-2.910
16301.000			-23.275			-2.909
16401.000			-23.272			-2.909
16501.000			-23.270			-2.909
16601.000			-23.268			-2.908
16700.000			-23.265			-2.908
16800.000			-23.263			-2.908
16901.000			-23.258			-2.907
17000.000			-23.255			-2.907
17100.000			-23.252			-2.907
17202.000			-23.250			-2.906
17301.000			-23.247			-2.906
17401.000			-23.245			-2.906
17501.000			-23.243			-2.905
17600.000			-23.240			-2.905
17700.000			-23.235			-2.904
17800.000			-23.232			-2.904
17900.000			-23.230			-2.904
18002.000			-23.227			-2.903
18101.000			-23.225			-2.903
18200.000			-23.223			-2.903
18301.000			-23.220			-2.903
18400.000			-23.216			-2.902
18500.000			-23.214			-2.902
18601.000			-23.211			-2.901
18700.000			-23.208			-2.901
18801.000			-23.206			-2.901
18902.000			-23.205			-2.901
19000.000			-23.202			-2.900
19100.000			-23.199			-2.900
19201.000			-23.197			-2.900
19300.000			-23.193			-2.899
19400.000			-23.190			-2.899
19501.000			-23.189			-2.899
19601.000			-23.186			-2.898
19701.000			-23.184			-2.898
19801.000			-23.179			-2.897
19900.000			-23.178			-2.897
20000.000			-23.176			-2.897
20101.000			-23.173			-2.897
20200.000			-23.171			-2.896
20300.000			-23.168			-2.896
20402.000			-23.166			-2.896
20501.000			-23.165			-2.896
20600.000			-23.161			-2.895
20701.000			-23.160			-2.895
20800.000			-23.157			-2.895
20900.000			-23.154			-2.894
21000.000			-23.153			-2.894
21100.000			-23.150			-2.894
21202.000			-23.148			-2.894
21301.000			-23.145			-2.893
21400.000			-23.142			-2.893
21501.000			-23.141			-2.893
21600.000			-23.138			-2.892
21700.000			-23.136			-2.892
21801.000			-23.134			-2.892
21901.000			-23.132			-2.892
22001.000			-23.129			-2.891
22101.000			-23.127			-2.891
22200.000			-23.126			-2.891
22300.000			-23.123			-2.890
22401.000			-23.121			-2.890
22500.000			-23.120			-2.890
22600.000			-23.117			-2.890
22702.000			-23.113			-2.889
22801.000			-23.111			-2.889
22900.000			-23.109			-2.889
23001.000			-23.108			-2.889
23100.000			-23.106			-2.888
23200.000			-23.103			-2.888
23301.000			-23.101			-2.888
23400.000			-23.100			-2.888
23501.000			-23.097			-2.887
23602.000			-23.095			-2.887
23700.000			-23.093			-2.887
23800.000			-23.091			-2.886
23901.000			-23.089			-2.886
24000.000			-23.087			-2.886
24100.000			-23.086			-2.886
24202.000			-23.083			-2.885
24301.000			-23.080			-2.885
24401.000			-23.078			-2.885
24500.000			-23.076			-2.885
24600.000			-23.075			-2.884
24701.000			-23.072			-2.884
24800.000			-23.070			-2.884
24900.000			-23.067			-2.883
25002.000			-23.066			-2.883
25101.000			-23.064			-2.883
25200.000			-23.061			-2.883
25301.000			-23.060			-2.882
25400.000			-23.059			-2.882
25500.000			-23.058			-2.882
25601.000			-23.056			-2.882
25700.000			-23.051			-2.881
25801.000			-23.049			-2.881
25902.000			-23.047			-2.881
26000.000			-23.047			-2.881
26100.000			-23.046			-2.881
26201.000			-23.044			-2.880
26300.000			-23.043			-2.880
26400.000			-23.039			-2.880
26501.000			-23.038			-2.880
26601.000			-23.036			-2.880
26701.000			-23.034			-2.879
26801.000			-23.033			-2.879
26900.000			-23.031			-2.879
27000.000			-23.029			-2.879
27101.000			-23.026			-2.878
27200.000			-23.025			-2.878
27300.000			-23.023			-2.878
27402.000			-23.021			-2.878
27501.000			-23.019			-2.877
27601.000			-23.018			-2.877
27700.000			-23.016			-2.877
27800.000			-23.013			-2.877
27901.000			-23.011			-2.876
28000.000			-23.010			-2.876
28101.000			-23.009			-2.876
28202.000			-23.007			-2.876
28300.000			-23.006			-2.876
28400.000			-23.003			-2.875
28501.000			-23.002			-2.875
28600.000			-22.999			-2.875
28700.000			-22.998			-2.875
28801.000			-22.997			-2.875
28901.000			-22.995			-2.874
29001.000			-22.992			-2.874
29102.000			-22.991			-2.874
29200.000			-22.990			-2.874
29300.000			-22.986			-2.873
29401.000			-22.984			-2.873
29500.000			-22.983			-2.873
29600.000			-22.983			-2.873
29701.000			-22.982			-2.873
29801.000			-22.980			-2.873
29901.000			-22.979			-2.872
30001.000			-22.976			-2.872
30100.000			-22.974			-2.872
30200.000			-22.973			-2.872
30301.000			-22.972			-2.871
30400.000			-22.969			-2.871
30500.000			-22.968			-2.871
30602.000			-22.967			-2.871
30701.000			-22.964			-2.870
30801.000			-22.962			-2.870
30900.000			-22.961			-2.870
31000.000			-22.960			-2.870
31101.000			-22.958			-2.870
31200.000			-22.955			-2.869
31300.000			-22.954			-2.869
31402.000			-22.954			-2.869
31501.000			-22.952			-2.869
31600.000			-22.949			-2.869
31701.000			-22.949			-2.869
31800.000			-22.947			-2.868
31900.000			-22.945			-2.868
32001.000			-22.943			-2.868
32100.000			-22.942			-2.868
32201.000			-22.939			-2.867
32302.000			-22.937			-2.867
32400.000			-22.937			-2.867
32500.000			-22.936			-2.867
32601.000			-22.934			-2.867
32700.000			-22.933			-2.867
32800.000			-22.932			-2.867
32901.000			-22.929			-2.866
33001.000			-22.928			-2.866
33101.000			-22.926			-2.866
33201.000			-22.925			-2.866
33300.000			-22.923			-2.865
33400.000			-22.922			-2.865
33501.000			-22.921			-2.865
33600.000			-22.918			-2.865
33702.000			-22.917			-2.865
33801.000			-22.916			-2.865
33901.000			-22.916			-2.864
34001.000			-22.914			-2.864
34100.000			-22.913			-2.864
34200.000			-22.912			-2.864
34301.000			-22.908			-2.863
34400.000			-22.907			-2.863
34500.000			-22.905			-2.863
34602.000			-22.904			-2.863
34701.000			-22.903			-2.863
34800.000			-22.902			-2.863
34901.000			-22.901			-2.863
35000.000			-22.899			-2.862
35100.000			-22.897			-2.862
35201.000			-22.895			-2.862
35301.000			-22.894			-2.862
35401.000			-22.893			-2.862
35501.000			-22.892			-2.861
35600.000			-22.890			-2.861
35700.000			-22.888			-2.861
35801.000			-22.887			-2.861
35900.000			-22.886			-2.861
36000.000			-22.885			-2.861
36101.000			-22.884			-2.860
36201.000			-22.882			-2.860
36301.000			-22.881			-2.860
36401.000			-22.879			-2.860
36500.000			-22.876			-2.860
36600.000			-22.875			-2.859
36701.000			-22.873			-2.859
36800.000			-22.872			-2.859
36900.000			-22.872			-2.859
37002.000			-22.871			-2.859
37101.000			-22.870			-2.859
37201.000			-22.868			-2.859
37300.000			-22.867			-2.858
37400.000			-22.866			-2.858
37501.000			-22.864			-2.858
37600.000			-22.862			-2.858
37700.000			-22.861			-2.858
37802.000			-22.861			-2.858
37901.000			-22.859			-2.857
38000.000			-22.856			-2.857
38101.000			-22.856			-2.857
38200.000			-22.855			-2.857
38300.000			-22.853			-2.857
38401.000			-22.851			-2.856
38500.000			-22.851			-2.856
38601.000			-22.850			-2.856
38702.000			-22.847			-2.856
38800.000			-22.847			-2.856
38900.000			-22.845			-2.856
39001.000			-22.844			-2.856
39100.000			-22.843			-2.855
39200.000			-22.842			-2.855
39301.000			-22.841			-2.855
39401.000			-22.838			-2.855
39501.000			-22.837			-2.855
39601.000			-22.836			-2.855
39700.000			-22.836			-2.854
39800.000			-22.835			-2.854
39901.000			-22.834			-2.854
40000.000			-22.833			-2.854
40100.000			-22.830			-2.854
40202.000			-22.828			-2.854
40301.000			-22.828			-2.854
40401.000			-22.827			-2.853
40500.000			-22.826			-2.853
40600.000			-22.825			-2.853
40701.000			-22.823			-2.853
40800.000			-22.821			-2.853
40900.000			-22.821			-2.853
41002.000			-22.819			-2.852
41101.000			-22.818			-2.852
41200.000			-22.817			-2.852
41301.000			-22.816			-2.852
41400.000			-22.814			-2.852
41500.000			-22.813			-2.852
41601.000			-22.812			-2.851
41700.000			-22.811			-2.851
41801.000			-22.809			-2.851
41902.000			-22.807			-2.851
42000.000			-22.807			-2.851
42100.000			-22.806			-2.851
42201.000			-22.804			-2.851
42300.000			-22.803			-2.850
42400.000			-22.802			-2.850
42501.000			-22.800			-2.850
42601.000			-22.800			-2.850
42701.000			-22.800			-2.850
42801.000			-22.799			-2.850
42900.000			-22.798			-2.850
43000.000			-22.794			-2.849
43101.000			-22.794			-2.849
43200.000			-22.793			-2.849
43300.000			-22.792			-2.849
43402.000			-22.791			-2.849
43501.000			-22.790			-2.849
43601.000			-22.789			-2.849
43700.000			-22.788			-2.849
43800.000			-22.785			-2.848
43901.000			-22.784			-2.848
44000.000			-22.784			-2.848
44100.000			-22.784			-2.848
44202.000			-22.782			-2.848
44301.000			-22.781			-2.848
44400.000			-22.779			-2.847
44501.000			-22.777			-2.847
44600.000			-22.776			-2.847
44700.000			-22.775			-2.847
44801.000			-22.775			-2.847
44900.000			-22.774			-2.847
45001.000			-22.773			-2.847
45102.000			-22.772			-2.847
45200.000			-22.769			-2.846
45300.000			-22.769			-2.846
45401.000			-22.767			-2.846
45500.000			-22.767			-2.846
45600.000			-22.766			-2.846
45701.000			-22.766			-2.846
45801.000			-22.765			-2.846
45901.000			-22.762			-2.845
46001.000			-22.761			-2.845
46100.000			-22.760			-2.845
46200.000			-22.759			-2.845
46301.000			-22.759			-2.845
46400.000			-22.757			-2.845
46500.000			-22.756			-2.845
46602.000			-22.755			-2.844
46701.000			-22.753			-2.844
46801.000			-22.752			-2.844
46900.000			-22.751			-2.844
47000.000			-22.750			-2.844
47101.000			-22.750			-2.844
47200.000			-22.749			-2.844
47300.000			-22.748			-2.844
47402.000			-22.746			-2.843
47501.000			-22.744			-2.843
47600.000			-22.743			-2.843
47701.000			-22.742			-2.843
47800.000			-22.741			-2.843
47900.000			-22.740			-2.843
48001.000			-22.739			-2.842
48100.000			-22.738			-2.842
48201.000			-22.736			-2.842
48302.000			-22.735			-2.842
48400.000			-22.735			-2.842
48500.000			-22.735			-2.842
48601.000			-22.733			-2.842
48700.000			-22.732			-2.842
48800.000			-22.731			-2.841
48901.000			-22.730			-2.841
49001.000			-22.728			-2.841
49101.000			-22.727			-2.841
49201.000			-22.728			-2.841
49300.000			-22.727			-2.841
49400.000			-22.725			-2.841
49501.000			-22.724			-2.840
49600.000			-22.723			-2.840
49700.000			-22.723			-2.840
49802.000			-22.721			-2.840
49901.000			-22.720			-2.840
50001.000			-22.720			-2.840
50100.000			-22.719			-2.840
50200.000			-22.718			-2.840
50301.000			-22.717			-2.840
50400.000			-22.716			-2.839
50500.000			-22.715			-2.839
50602.000			-22.714			-2.839
50701.000			-22.713			-2.839
50800.000			-22.711			-2.839
50901.000			-22.710			-2.839
51000.000			-22.709			-2.839
51100.000			-22.708			-2.839
51201.000			-22.707			-2.838
51300.000			-22.706			-2.838
51401.000			-22.705			-2.838
51502.000			-22.704			-2.838
51600.000			-22.703			-2.838
51700.000			-22.702			-2.838
51801.000			-22.701			-2.838
51900.000			-22.699			-2.837
52000.000			-22.700			-2.837
52101.000			-22.698			-2.837
52201.000			-22.698			-2.837
52301.000			-22.696			-2.837
52401.000			-22.695			-2.837
52500.000			-22.694			-2.837
52600.000			-22.693			-2.837
52701.000			-22.692			-2.837
52800.000			-22.692			-2.836
52900.000			-22.691			-2.836
53002.000			-22.689			-2.836
53101.000			-22.689			-2.836
53201.000			-22.688			-2.836
53300.000			-22.685			-2.836
53400.000			-22.685			-2.836
53501.000			-22.686			-2.836
53600.000			-22.684			-2.835
53700.000			-22.683			-2.835
53802.000			-22.682			-2.835
53901.000			-22.680			-2.835
54000.000			-22.679			-2.835
54101.000			-22.679			-2.835
54200.000			-22.678			-2.835
54300.000			-22.676			-2.835
54401.000			-22.675			-2.834
54500.000			-22.675			-2.834
54601.000			-22.674			-2.834
54702.000			-22.673			-2.834
54800.000			-22.673			-2.834
54900.000			-22.671			-2.834
55001.000			-22.670			-2.834
55100.000			-22.669			-2.834
55200.000			-22.668			-2.834
55301.000			-22.666			-2.833
55401.000			-22.667			-2.833
55501.000			-22.667			-2.833
55601.000			-22.665			-2.833
55700.000			-22.664			-2.833
55800.000			-22.664			-2.833
55901.000			-22.662			-2.833
56000.000			-22.661			-2.833
56100.000			-22.659			-2.832
56202.000			-22.660			-2.832
56301.000			-22.659			-2.832
56401.000			-22.657			-2.832
56500.000			-22.656			-2.832
56600.000			-22.656			-2.832
56701.000			-22.655			-2.832
56800.000			-22.654			-2.832
56900.000			-22.654			-2.832
57002.000			-22.653			-2.832
57101.000			-22.651			-2.831
57200.000			-22.650			-2.831
57301.000			-22.649			-2.831
57400.000			-22.648			-2.831
57500.000			-22.647			-2.831
57601.000			-22.647			-2.831
57700.000			-22.645			-2.831
57801.000			-22.644			-2.830
57902.000			-22.644			-2.830
58000.000			-22.645			-2.831
58100.000			-22.644			-2.830
58201.000			-22.641			-2.830
58300.000			-22.640			-2.830
58400.000			-22.640			-2.830
58501.000			-22.640			-2.830
58601.000			-22.638			-2.830
58701.000			-22.637			-2.830
58801.000			-22.637			-2.830
58900.000			-22.636			-2.829
59000.000			-22.635			-2.829
59101.000			-22.633			-2.829
59200.000			-22.632			-2.829
59300.000			-22.632			-2.829
59402.000			-22.631			-2.829
59501.000			-22.630			-2.829
59601.000			-22.628			-2.829
59700.000			-22.628			-2.828
59800.000			-22.627			-2.828
59901.000			-22.626			-2.828
60000.000			-22.624			-2.828
60100.000			-22.623			-2.828
60202.000			-22.623			-2.828
60301.000			-22.622			-2.828
60400.000			-22.622			-2.828
60501.000			-22.623			-2.828
60600.000			-22.622			-2.828
60700.000			-22.620			-2.828
60801.000			-22.619			-2.827
60900.000			-22.617			-2.827
61001.000			-22.615			-2.827
61102.000			-22.616			-2.827
61200.000			-22.615			-2.827
61300.000			-22.613			-2.827
61401.000			-22.614			-2.827
61500.000			-22.613			-2.827
61600.000			-22.613			-2.827
61701.000			-22.612			-2.826
61801.000			-22.611			-2.826
61901.000			-22.609			-2.826
62001.000			-22.608			-2.826
62100.000			-22.608			-2.826
62200.000			-22.606			-2.826
62301.000			-22.606			-2.826
62400.000			-22.605			-2.826
62500.000			-22.605			-2.826
62602.000			-22.604			-2.825
62701.000			-22.602			-2.825
62801.000			-22.602			-2.825
62900.000			-22.601			-2.825
63000.000			-22.600			-2.825
63101.000			-22.599			-2.825
63200.000			-22.599			-2.825
63301.000			-22.597			-2.825
63402.000			-22.597			-2.825
63500.000			-22.597			-2.825
63600.000			-22.595			-2.824
63701.000			-22.594			-2.824
63800.000			-22.594			-2.824
63900.000			-22.594			-2.824
64001.000			-22.592			-2.824
64101.000			-22.591			-2.824
64201.000			-22.590			-2.824
64301.000			-22.588			-2.823
64400.000			-22.588			-2.823
64500.000			-22.588			-2.824
64601.000			-22.587			-2.823
64700.000			-22.587			-2.823
64800.000			-22.587			-2.823
64901.000			-22.584			-2.823
65001.000			-22.583			-2.823
65101.000			-22.584			-2.823
65201.000			-22.582			-2.823
65300.000			-22.581			-2.823
65400.000			-22.582			-2.823
65501.000			-22.581			-2.823
65600.000			-22.580			-2.822
65700.000			-22.578			-2.822
65802.000			-22.578			-2.822
65901.000			-22.578			-2.822
66001.000			-22.576			-2.822
66100.000			-22.575			-2.822
66200.000			-22.574			-2.822
66301.000			-22.573			-2.822
66400.000			-22.572			-2.821
66500.000			-22.572			-2.822
66602.000			-22.572			-2.822
66701.000			-22.572			-2.821
66800.000			-22.571			-2.821
66901.000			-22.569			-2.821
67000.000			-22.569			-2.821
67100.000			-22.568			-2.821
67201.000			-22.568			-2.821
67300.000			-22.567			-2.821
67401.000			-22.565			-2.821
67502.000			-22.564			-2.821
67601.000			-22.564			-2.820
67700.000			-22.563			-2.820
67801.000			-22.563			-2.820
67900.000			-22.562			-2.820
68000.000			-22.562			-2.820
68101.000			-22.561			-2.820
68200.000			-22.560			-2.820
68301.000			-22.559			-2.820
68402.000			-22.559			-2.820
68500.000			-22.557			-2.820
68600.000			-22.557			-2.820
68701.000			-22.556			-2.820
68800.000			-22.555			-2.819
