# Acquired on 25/01/2024 11:20:41 
# SPIDER: Creep_4mm_GRPCNT1454A-3
# CREEP MEASUREMENT

# time [ms]		force [N]		stiffness [N/mm]
1.000			-16.815			-4.204
104.000			-17.536			-4.384
204.000			-17.651			-4.413
305.000			-17.509			-4.377
404.000			-17.275			-4.319
504.000			-17.192			-4.298
605.000			-17.121			-4.280
704.000			-17.059			-4.265
804.000			-17.003			-4.251
905.000			-16.954			-4.239
1004.000			-16.909			-4.227
1105.000			-16.868			-4.217
1203.000			-16.796			-4.199
1304.000			-16.762			-4.190
1405.000			-16.732			-4.183
1504.000			-16.704			-4.176
1604.000			-16.676			-4.169
1705.000			-16.650			-4.163
1804.000			-16.627			-4.157
1903.000			-16.583			-4.146
2005.000			-16.562			-4.141
2104.000			-16.542			-4.136
2204.000			-16.523			-4.131
2305.000			-16.504			-4.126
2403.000			-16.488			-4.122
2504.000			-16.470			-4.118
2605.000			-16.438			-4.110
2704.000			-16.422			-4.106
2804.000			-16.408			-4.102
2905.000			-16.395			-4.099
3004.000			-16.381			-4.095
3103.000			-16.367			-4.092
3205.000			-16.354			-4.088
3304.000			-16.330			-4.082
3404.000			-16.318			-4.079
3505.000			-16.306			-4.076
3603.000			-16.295			-4.074
3704.000			-16.283			-4.071
3805.000			-16.272			-4.068
3904.000			-16.262			-4.065
4004.000			-16.252			-4.063
4104.000			-16.232			-4.058
4204.000			-16.222			-4.056
4304.000			-16.213			-4.053
4404.000			-16.204			-4.051
4504.000			-16.195			-4.049
4605.000			-16.185			-4.046
4704.000			-16.176			-4.044
4804.000			-16.162			-4.040
4905.000			-16.153			-4.038
5003.000			-16.144			-4.036
5104.000			-16.135			-4.034
5205.000			-16.128			-4.032
5304.000			-16.120			-4.030
5404.000			-16.112			-4.028
5504.000			-16.099			-4.025
5604.000			-16.092			-4.023
5704.000			-16.085			-4.021
5805.000			-16.077			-4.019
5904.000			-16.071			-4.018
6004.000			-16.065			-4.016
6105.000			-16.058			-4.015
6203.000			-16.052			-4.013
6304.000			-16.038			-4.010
6405.000			-16.033			-4.008
6504.000			-16.027			-4.007
6604.000			-16.021			-4.005
6704.000			-16.014			-4.004
6804.000			-16.009			-4.002
6904.000			-16.003			-4.001
7005.000			-15.992			-3.998
7104.000			-15.987			-3.997
7204.000			-15.981			-3.995
7305.000			-15.976			-3.994
7403.000			-15.971			-3.993
7505.000			-15.966			-3.991
7604.000			-15.960			-3.990
7704.000			-15.951			-3.988
7805.000			-15.945			-3.986
7904.000			-15.941			-3.985
8004.000			-15.935			-3.984
8104.000			-15.930			-3.983
8204.000			-15.925			-3.981
8304.000			-15.921			-3.980
8405.000			-15.912			-3.978
8504.000			-15.908			-3.977
8603.000			-15.903			-3.976
8705.000			-15.898			-3.974
8804.000			-15.894			-3.974
8904.000			-15.890			-3.973
9005.000			-15.885			-3.971
9104.000			-15.881			-3.970
9204.000			-15.873			-3.968
9304.000			-15.868			-3.967
9404.000			-15.864			-3.966
9504.000			-15.860			-3.965
9605.000			-15.856			-3.964
9704.000			-15.852			-3.963
9804.000			-15.848			-3.962
9905.000			-15.840			-3.960
10003.000			-15.837			-3.959
10104.000			-15.833			-3.958
10205.000			-15.830			-3.957
10304.000			-15.826			-3.957
10404.000			-15.822			-3.956
10504.000			-15.818			-3.954
10604.000			-15.810			-3.953
10704.000			-15.807			-3.952
10804.000			-15.804			-3.951
10904.000			-15.800			-3.950
11005.000			-15.795			-3.949
11104.000			-15.792			-3.948
11204.000			-15.789			-3.947
11305.000			-15.787			-3.947
11403.000			-15.779			-3.945
11504.000			-15.776			-3.944
11605.000			-15.773			-3.943
11704.000			-15.769			-3.942
11804.000			-15.766			-3.942
11905.000			-15.763			-3.941
12004.000			-15.760			-3.940
12103.000			-15.754			-3.938
12205.000			-15.751			-3.938
12304.000			-15.747			-3.937
12404.000			-15.744			-3.936
12505.000			-15.740			-3.935
12604.000			-15.738			-3.935
12704.000			-15.735			-3.934
12804.000			-15.730			-3.932
12904.000			-15.727			-3.932
13004.000			-15.724			-3.931
13105.000			-15.721			-3.930
13204.000			-15.719			-3.930
13304.000			-15.715			-3.929
13405.000			-15.711			-3.928
13503.000			17.104			4.276
13604.000			109.983			27.496
13705.000			-15.701			-3.925
13804.000			-15.698			-3.925
13905.000			-15.696			-3.924
14004.000			-15.693			-3.923
14104.000			-15.690			-3.922
14204.000			-15.687			-3.922
14304.000			-15.683			-3.921
14404.000			-15.681			-3.920
14505.000			-15.677			-3.919
14604.000			-15.675			-3.919
14703.000			-15.672			-3.918
14805.000			-15.670			-3.917
14904.000			-15.667			-3.917
15004.000			-15.662			-3.916
15105.000			-15.660			-3.915
15204.000			-15.656			-3.914
15304.000			-15.654			-3.914
15404.000			-15.651			-3.913
15504.000			-15.649			-3.912
15604.000			-15.646			-3.912
15705.000			-15.642			-3.911
15804.000			-15.640			-3.910
15904.000			-15.637			-3.909
16005.000			-15.634			-3.909
16103.000			-15.632			-3.908
16204.000			-15.630			-3.908
16305.000			-15.628			-3.907
16404.000			-15.626			-3.906
16504.000			-15.622			-3.905
16605.000			-15.619			-3.905
16704.000			-15.617			-3.904
16803.000			-15.615			-3.904
16905.000			-15.612			-3.903
17004.000			-15.610			-3.903
17105.000			-15.608			-3.902
17204.000			-15.604			-3.901
17304.000			-15.602			-3.900
17405.000			-15.599			-3.900
17503.000			-15.597			-3.899
17604.000			-15.595			-3.899
17705.000			-15.594			-3.898
17804.000			-15.591			-3.898
17904.000			-15.587			-3.897
18005.000			-15.585			-3.896
18104.000			-15.582			-3.895
18203.000			-15.580			-3.895
18305.000			-15.578			-3.894
18404.000			-15.576			-3.894
18504.000			-15.575			-3.894
18605.000			-15.571			-3.893
18704.000			-15.569			-3.892
18804.000			-15.567			-3.892
18904.000			-15.564			-3.891
19004.000			-15.563			-3.891
19104.000			-15.561			-3.890
19205.000			-15.559			-3.890
19304.000			-15.557			-3.889
19404.000			-15.554			-3.888
19505.000			-15.551			-3.888
19603.000			-15.549			-3.887
19704.000			-15.548			-3.887
19805.000			-15.546			-3.886
19904.000			-15.544			-3.886
20004.000			-15.543			-3.886
20104.000			-15.539			-3.885
20204.000			-15.535			-3.884
20304.000			-15.534			-3.883
20404.000			-15.533			-3.883
20504.000			-15.531			-3.883
20605.000			-15.529			-3.882
20704.000			-15.528			-3.882
20804.000			-15.523			-3.881
20905.000			-15.521			-3.880
21003.000			-15.520			-3.880
21104.000			-15.518			-3.879
21205.000			-15.516			-3.879
21304.000			-15.515			-3.879
21404.000			-15.514			-3.878
21505.000			-15.512			-3.878
21604.000			-15.508			-3.877
21703.000			-15.506			-3.877
21805.000			-15.504			-3.876
21904.000			-15.503			-3.876
22004.000			-15.502			-3.875
22105.000			-15.500			-3.875
22204.000			-15.498			-3.874
22304.000			-15.494			-3.874
22404.000			-15.492			-3.873
22504.000			-15.489			-3.872
22604.000			-15.487			-3.872
22705.000			-15.486			-3.872
22804.000			-15.484			-3.871
22904.000			-15.483			-3.871
23005.000			-15.479			-3.870
23103.000			-15.479			-3.870
23204.000			-15.478			-3.869
23305.000			-15.475			-3.869
23404.000			-15.473			-3.868
23505.000			-15.473			-3.868
23604.000			-15.471			-3.868
23704.000			-15.468			-3.867
23804.000			-15.466			-3.866
23904.000			-15.465			-3.866
24004.000			-15.463			-3.866
24105.000			-15.461			-3.865
24204.000			-15.459			-3.865
24303.000			-15.458			-3.864
24405.000			-15.457			-3.864
24504.000			-15.453			-3.863
24604.000			-15.452			-3.863
24705.000			-15.451			-3.863
24804.000			-15.450			-3.863
24904.000			-15.448			-3.862
25004.000			-15.446			-3.861
25104.000			-15.445			-3.861
25204.000			-15.442			-3.860
25305.000			-15.440			-3.860
25404.000			-15.440			-3.860
25504.000			-15.438			-3.859
25605.000			-15.437			-3.859
25703.000			-15.435			-3.859
25804.000			-15.433			-3.858
25905.000			-15.431			-3.858
26004.000			-15.430			-3.857
26104.000			-15.427			-3.857
26205.000			-15.426			-3.856
26304.000			-15.424			-3.856
26403.000			-15.423			-3.856
26505.000			-15.422			-3.855
26604.000			-15.421			-3.855
26705.000			-15.418			-3.854
26804.000			-15.417			-3.854
26904.000			-15.415			-3.854
27005.000			-15.412			-3.853
27103.000			-15.412			-3.853
27204.000			-15.412			-3.853
27305.000			-15.410			-3.852
27404.000			-15.406			-3.851
27504.000			-15.405			-3.851
27605.000			-15.404			-3.851
27704.000			-15.404			-3.851
27803.000			-15.402			-3.851
27905.000			-15.401			-3.850
28004.000			-15.401			-3.850
28104.000			-15.397			-3.849
28205.000			-15.395			-3.849
28304.000			-15.394			-3.849
28404.000			-15.392			-3.848
28504.000			-15.391			-3.848
28604.000			-15.390			-3.847
28704.000			-15.389			-3.847
28805.000			-15.388			-3.847
28904.000			-15.385			-3.846
29004.000			-15.383			-3.846
29105.000			-15.384			-3.846
29203.000			-15.382			-3.845
29304.000			-15.380			-3.845
29405.000			-15.378			-3.845
29504.000			-15.377			-3.844
29604.000			-15.376			-3.844
29704.000			-15.375			-3.844
29804.000			-15.373			-3.843
29904.000			-15.371			-3.843
30004.000			-15.370			-3.842
30104.000			-15.370			-3.842
30205.000			-15.369			-3.842
30304.000			-15.366			-3.841
30404.000			-15.364			-3.841
30505.000			-15.363			-3.841
30603.000			-15.361			-3.840
30704.000			-15.361			-3.840
30805.000			-15.359			-3.840
30904.000			-15.358			-3.839
31004.000			-15.357			-3.839
31104.000			-15.355			-3.839
31204.000			-15.354			-3.838
31303.000			-15.352			-3.838
31405.000			-15.351			-3.838
31504.000			-15.350			-3.837
31604.000			-15.349			-3.837
31705.000			-15.349			-3.837
31803.000			-15.346			-3.836
31904.000			-15.343			-3.836
32005.000			-15.343			-3.836
32104.000			-15.342			-3.836
32204.000			-15.341			-3.835
32305.000			-15.339			-3.835
32404.000			-15.339			-3.835
32503.000			-15.337			-3.834
32605.000			-15.335			-3.834
32704.000			-15.334			-3.833
32804.000			-15.334			-3.833
32905.000			-15.334			-3.833
33004.000			-15.332			-3.833
33105.000			-15.330			-3.833
33203.000			-15.328			-3.832
33304.000			-15.327			-3.832
33405.000			-15.326			-3.831
33504.000			-15.324			-3.831
33604.000			-15.323			-3.831
33705.000			-15.322			-3.830
33804.000			-15.321			-3.830
33903.000			-15.320			-3.830
34005.000			-15.318			-3.829
34104.000			-15.316			-3.829
34204.000			-15.315			-3.829
34305.000			-15.315			-3.829
34404.000			-15.315			-3.829
34504.000			-15.313			-3.828
34605.000			-15.312			-3.828
34704.000			-15.310			-3.828
34804.000			-15.309			-3.827
34905.000			-15.308			-3.827
35004.000			-15.307			-3.827
35103.000			-15.306			-3.826
35205.000			-15.305			-3.826
35304.000			-15.303			-3.826
35404.000			-15.302			-3.825
35505.000			-15.301			-3.825
35604.000			-15.300			-3.825
35704.000			-15.298			-3.825
35804.000			-15.297			-3.824
35904.000			-15.297			-3.824
36004.000			-15.296			-3.824
36104.000			-15.296			-3.824
36204.000			-15.292			-3.823
36305.000			-15.292			-3.823
36404.000			-15.290			-3.823
36503.000			-15.289			-3.822
36605.000			-15.288			-3.822
36704.000			-15.287			-3.822
36804.000			-15.285			-3.821
36905.000			-15.285			-3.821
37004.000			-15.284			-3.821
37104.000			-15.283			-3.821
37204.000			-15.283			-3.821
37304.000			-15.282			-3.820
37404.000			-15.280			-3.820
37505.000			-15.278			-3.820
37604.000			-15.277			-3.819
37704.000			-15.276			-3.819
37805.000			-15.275			-3.819
37903.000			-15.274			-3.818
38004.000			-15.272			-3.818
38105.000			-15.271			-3.818
38204.000			-15.271			-3.818
38304.000			-15.269			-3.817
38405.000			-15.268			-3.817
38504.000			-15.267			-3.817
38603.000			-15.266			-3.817
38705.000			-15.265			-3.816
38804.000			-15.263			-3.816
38904.000			-15.262			-3.816
39005.000			-15.261			-3.815
39104.000			-15.260			-3.815
39204.000			-15.260			-3.815
39303.000			-15.259			-3.815
39404.000			-15.257			-3.814
39505.000			-15.257			-3.814
39604.000			-15.256			-3.814
39704.000			-15.256			-3.814
39805.000			-15.253			-3.813
39904.000			-15.253			-3.813
40003.000			-15.252			-3.813
40105.000			-15.252			-3.813
40204.000			-15.250			-3.812
40304.000			-15.249			-3.812
40405.000			-15.249			-3.812
40503.000			-15.247			-3.812
40604.000			-15.245			-3.811
40705.000			-15.245			-3.811
40804.000			-15.244			-3.811
40904.000			-15.244			-3.811
41005.000			-15.243			-3.811
41104.000			-15.241			-3.810
41203.000			-15.240			-3.810
41305.000			-15.238			-3.810
41404.000			-15.238			-3.809
41504.000			-15.236			-3.809
41605.000			-15.236			-3.809
41704.000			-15.235			-3.809
41804.000			-15.234			-3.808
41904.000			-15.233			-3.808
42004.000			-15.231			-3.808
42104.000			-15.230			-3.808
42205.000			-15.230			-3.808
42304.000			-15.229			-3.807
42403.000			-15.228			-3.807
42505.000			-15.228			-3.807
42604.000			-15.227			-3.807
42705.000			-15.226			-3.806
42804.000			-15.224			-3.806
42904.000			-15.223			-3.806
43005.000			-15.223			-3.806
43103.000			-15.223			-3.806
43204.000			-15.221			-3.805
43305.000			-15.219			-3.805
43404.000			-15.219			-3.805
43504.000			-15.218			-3.804
43605.000			-15.217			-3.804
43704.000			-15.216			-3.804
43803.000			-15.216			-3.804
43905.000			-15.214			-3.803
44004.000			-15.213			-3.803
44104.000			-15.212			-3.803
44205.000			-15.210			-3.803
44304.000			-15.210			-3.802
44404.000			-15.209			-3.802
44504.000			-15.209			-3.802
44604.000			-15.208			-3.802
44704.000			-15.207			-3.802
44805.000			-15.206			-3.801
44904.000			-15.205			-3.801
45004.000			-15.203			-3.801
45105.000			-15.202			-3.800
45203.000			-15.202			-3.801
45304.000			-15.201			-3.800
45405.000			-15.200			-3.800
45504.000			-15.199			-3.800
45604.000			-15.198			-3.799
45704.000			-15.197			-3.799
45804.000			-15.197			-3.799
45904.000			-15.197			-3.799
46004.000			-15.195			-3.799
46104.000			-15.194			-3.799
46205.000			-15.193			-3.798
46304.000			-15.193			-3.798
46404.000			-15.193			-3.798
46505.000			-15.192			-3.798
46603.000			-15.190			-3.798
46704.000			-15.189			-3.797
46805.000			-15.188			-3.797
46904.000			-15.187			-3.797
47004.000			-15.187			-3.797
47104.000			-15.186			-3.797
47204.000			-15.185			-3.796
47303.000			-15.184			-3.796
47405.000			-15.183			-3.796
47504.000			-15.182			-3.796
47604.000			-15.181			-3.795
47705.000			-15.181			-3.795
47803.000			-15.180			-3.795
47904.000			-15.178			-3.795
48005.000			-15.177			-3.794
48104.000			-15.176			-3.794
48204.000			-15.175			-3.794
48305.000			-15.175			-3.794
48404.000			-15.174			-3.794
48503.000			-15.173			-3.793
48605.000			-15.173			-3.793
48704.000			-15.171			-3.793
48804.000			-15.170			-3.792
48905.000			-15.169			-3.792
49004.000			-15.168			-3.792
49105.000			-15.167			-3.792
49203.000			-15.167			-3.792
49304.000			-15.165			-3.791
49405.000			-15.165			-3.791
49504.000			-15.164			-3.791
49604.000			-15.163			-3.791
49705.000			-15.163			-3.791
49804.000			-15.162			-3.790
49903.000			-15.162			-3.790
50005.000			-15.161			-3.790
50104.000			-15.160			-3.790
50204.000			-15.158			-3.790
50305.000			-15.157			-3.789
50404.000			-15.156			-3.789
50504.000			-15.156			-3.789
50604.000			-15.156			-3.789
50704.000			-15.155			-3.789
50804.000			-15.154			-3.788
50905.000			-15.153			-3.788
51004.000			-15.152			-3.788
51104.000			-15.152			-3.788
51205.000			-15.151			-3.788
51303.000			-15.151			-3.788
51404.000			-15.150			-3.787
51505.000			-15.148			-3.787
51604.000			-15.148			-3.787
51704.000			-15.147			-3.787
51804.000			-15.145			-3.786
51904.000			-15.145			-3.786
52004.000			-15.145			-3.786
52104.000			-15.144			-3.786
52204.000			-15.143			-3.786
52305.000			-15.142			-3.786
52404.000			-15.141			-3.785
52503.000			-15.140			-3.785
52605.000			-15.141			-3.785
52704.000			-15.140			-3.785
52804.000			-15.138			-3.785
52905.000			-15.137			-3.784
53004.000			-15.136			-3.784
53104.000			-15.134			-3.784
53204.000			-15.134			-3.783
53304.000			-15.133			-3.783
53404.000			-15.133			-3.783
53505.000			-15.132			-3.783
53604.000			-15.132			-3.783
53704.000			-15.131			-3.783
53805.000			-15.131			-3.783
53903.000			-15.130			-3.782
54004.000			-15.130			-3.782
54105.000			-15.129			-3.782
54204.000			-15.128			-3.782
54304.000			-15.127			-3.782
54405.000			-15.126			-3.782
54504.000			-15.126			-3.781
54603.000			-15.126			-3.781
54705.000			-15.124			-3.781
54804.000			-15.123			-3.781
54904.000			-15.122			-3.781
55005.000			-15.121			-3.780
55103.000			-15.121			-3.780
55204.000			-15.120			-3.780
55305.000			-15.119			-3.780
55404.000			-15.119			-3.780
55505.000			-15.118			-3.779
55604.000			-15.117			-3.779
55704.000			-15.117			-3.779
55804.000			-15.115			-3.779
55904.000			-15.114			-3.778
56004.000			-15.113			-3.778
56105.000			-15.113			-3.778
56204.000			-15.113			-3.778
56304.000			-15.111			-3.778
56405.000			-15.110			-3.778
56503.000			-15.110			-3.778
56604.000			-15.109			-3.777
56705.000			-15.109			-3.777
56804.000			-15.108			-3.777
56904.000			-15.107			-3.777
57005.000			-15.106			-3.777
57104.000			-15.105			-3.776
57203.000			-15.105			-3.776
57305.000			-15.103			-3.776
57404.000			-15.102			-3.776
57504.000			-15.102			-3.776
57605.000			-15.102			-3.775
57704.000			-15.102			-3.775
57804.000			-15.100			-3.775
57904.000			-15.100			-3.775
58004.000			-15.098			-3.775
58104.000			-15.098			-3.775
58205.000			-15.098			-3.774
58304.000			-15.097			-3.774
58404.000			-15.096			-3.774
58505.000			-15.096			-3.774
58603.000			-15.096			-3.774
58705.000			-15.095			-3.774
58804.000			-15.093			-3.773
58904.000			-15.092			-3.773
59005.000			-15.092			-3.773
59104.000			-15.092			-3.773
59204.000			-15.091			-3.773
59304.000			-15.090			-3.773
59404.000			-15.090			-3.772
59504.000			-15.088			-3.772
59605.000			-15.088			-3.772
59704.000			-15.087			-3.772
59804.000			-15.087			-3.772
59905.000			-15.088			-3.772
60003.000			-15.088			-3.772
60104.000			-15.086			-3.771
60205.000			-15.084			-3.771
60304.000			-15.084			-3.771
60404.000			-15.083			-3.771
60504.000			-15.082			-3.770
60604.000			-15.082			-3.770
60703.000			-15.080			-3.770
60805.000			-15.080			-3.770
60904.000			-15.079			-3.770
61004.000			-15.078			-3.770
61105.000			-15.077			-3.769
61203.000			-15.077			-3.769
61304.000			-15.076			-3.769
61405.000			-15.076			-3.769
61504.000			-15.075			-3.769
61604.000			-15.075			-3.769
61704.000			-15.074			-3.769
61804.000			-15.073			-3.768
61904.000			-15.073			-3.768
62004.000			-15.073			-3.768
62104.000			-15.071			-3.768
62205.000			-15.070			-3.768
62304.000			-15.070			-3.768
62404.000			-15.070			-3.767
62505.000			-15.070			-3.767
62603.000			-15.068			-3.767
62704.000			-15.068			-3.767
62805.000			-15.067			-3.767
62904.000			-15.066			-3.767
63004.000			-15.067			-3.767
63105.000			-15.064			-3.766
63204.000			-15.064			-3.766
63303.000			-15.063			-3.766
63405.000			-15.062			-3.765
63504.000			-15.061			-3.765
63604.000			-15.062			-3.765
63705.000			-15.060			-3.765
63804.000			-15.059			-3.765
63904.000			-15.058			-3.764
64004.000			-15.057			-3.764
64104.000			-15.058			-3.764
64204.000			-15.058			-3.764
64305.000			-15.056			-3.764
64404.000			-15.056			-3.764
64503.000			-15.054			-3.763
64605.000			-15.054			-3.764
64704.000			-15.054			-3.763
64804.000			-15.054			-3.763
64905.000			-15.052			-3.763
65004.000			-15.052			-3.763
65105.000			-15.052			-3.763
65203.000			-15.051			-3.763
65304.000			-15.051			-3.763
65405.000			-15.050			-3.763
65504.000			-15.049			-3.762
65604.000			-15.048			-3.762
65705.000			-15.048			-3.762
65804.000			-15.048			-3.762
65903.000			-15.048			-3.762
66005.000			-15.046			-3.761
66104.000			-15.046			-3.762
66204.000			-15.046			-3.761
66305.000			-15.045			-3.761
66404.000			-15.043			-3.761
66504.000			-15.043			-3.761
66604.000			-15.043			-3.761
66704.000			-15.043			-3.761
66804.000			-15.041			-3.760
66905.000			-15.040			-3.760
67004.000			-15.041			-3.760
67104.000			-15.041			-3.760
67205.000			-15.040			-3.760
67303.000			-15.038			-3.760
67404.000			-15.038			-3.760
67505.000			-15.038			-3.760
67604.000			-15.037			-3.759
67704.000			-15.037			-3.759
67805.000			-15.036			-3.759
67904.000			-15.035			-3.759
68003.000			-15.035			-3.759
68105.000			-15.035			-3.759
68204.000			-15.034			-3.759
68305.000			-15.035			-3.759
68404.000			-15.033			-3.758
68504.000			-15.033			-3.758
68605.000			-15.032			-3.758
68703.000			-15.031			-3.758
68804.000			-15.031			-3.758
