# Acquired on 10/01/2024 16:09:37 
# SPIDER: Creep_-7mm_07714532C-1
# CREEP MEASUREMENT

# time [ms]		force [N]		stiffness [N/mm]
0.000			10.481			-1.497
100.000			11.082			-1.583
201.000			11.323			-1.618
302.000			11.330			-1.619
400.000			11.224			-1.603
500.000			11.184			-1.598
601.000			11.150			-1.593
700.000			11.124			-1.589
800.000			11.102			-1.586
902.000			11.079			-1.583
1001.000			11.057			-1.580
1100.000			11.040			-1.577
1201.000			11.007			-1.572
1300.000			10.993			-1.570
1401.000			10.978			-1.568
1500.000			10.967			-1.567
1601.000			10.955			-1.565
1702.000			10.943			-1.563
1800.000			10.932			-1.562
1900.000			10.911			-1.559
2001.000			10.902			-1.557
2100.000			10.893			-1.556
2200.000			10.884			-1.555
2301.000			10.875			-1.554
2401.000			10.867			-1.552
2501.000			10.859			-1.551
2601.000			10.846			-1.549
2700.000			10.838			-1.548
2800.000			10.831			-1.547
2901.000			10.825			-1.546
3000.000			10.818			-1.545
3101.000			10.811			-1.544
3202.000			10.806			-1.544
3300.000			10.794			-1.542
3400.000			10.788			-1.541
3501.000			10.782			-1.540
3600.000			10.777			-1.540
3700.000			10.772			-1.539
3801.000			10.767			-1.538
3901.000			10.762			-1.537
4001.000			10.757			-1.537
4101.000			10.748			-1.535
4200.000			10.741			-1.534
4300.000			10.737			-1.534
4401.000			10.734			-1.533
4500.000			10.731			-1.533
4602.000			10.726			-1.532
4701.000			10.721			-1.532
4800.000			10.713			-1.530
4901.000			10.708			-1.530
5000.000			10.705			-1.529
5100.000			10.701			-1.529
5201.000			10.697			-1.528
5300.000			10.693			-1.528
5401.000			10.690			-1.527
5502.000			10.683			-1.526
5600.000			10.679			-1.526
5700.000			10.676			-1.525
5801.000			10.673			-1.525
5900.000			10.670			-1.524
6000.000			10.666			-1.524
6101.000			10.662			-1.523
6201.000			10.660			-1.523
6301.000			10.654			-1.522
6401.000			10.651			-1.522
6500.000			10.648			-1.521
6600.000			10.645			-1.521
6701.000			10.643			-1.520
6800.000			10.640			-1.520
6901.000			10.637			-1.520
7002.000			10.631			-1.519
7100.000			10.628			-1.518
7200.000			10.625			-1.518
7301.000			10.623			-1.518
7400.000			10.621			-1.517
7500.000			10.617			-1.517
7601.000			10.615			-1.516
7701.000			10.609			-1.516
7802.000			10.606			-1.515
7900.000			10.605			-1.515
8000.000			10.603			-1.515
8101.000			10.599			-1.514
8200.000			10.598			-1.514
8300.000			10.595			-1.514
8402.000			10.589			-1.513
8501.000			10.587			-1.512
8600.000			10.585			-1.512
8701.000			10.583			-1.512
8800.000			10.581			-1.512
8900.000			10.580			-1.511
9001.000			10.576			-1.511
9100.000			10.573			-1.510
9201.000			10.569			-1.510
9302.000			10.568			-1.510
9400.000			10.566			-1.509
9500.000			10.565			-1.509
9601.000			10.563			-1.509
9700.000			10.561			-1.509
9800.000			10.559			-1.508
9901.000			10.554			-1.508
10001.000			10.553			-1.508
10101.000			10.551			-1.507
10201.000			10.548			-1.507
10300.000			10.546			-1.507
10400.000			10.544			-1.506
10501.000			10.543			-1.506
10600.000			10.539			-1.506
10700.000			10.537			-1.505
10802.000			10.536			-1.505
10901.000			10.535			-1.505
11001.000			10.531			-1.504
11100.000			10.531			-1.504
11200.000			10.530			-1.504
11301.000			10.525			-1.504
11400.000			10.524			-1.503
11501.000			10.521			-1.503
11602.000			10.520			-1.503
11700.000			10.519			-1.503
11800.000			10.517			-1.502
11901.000			10.515			-1.502
12000.000			10.514			-1.502
12100.000			10.509			-1.501
12201.000			10.508			-1.501
12301.000			10.507			-1.501
12401.000			10.505			-1.501
12501.000			10.505			-1.501
12600.000			10.503			-1.500
12700.000			10.501			-1.500
12801.000			10.496			-1.499
12900.000			10.495			-1.499
13000.000			10.494			-1.499
13102.000			10.493			-1.499
13201.000			10.491			-1.499
13300.000			10.490			-1.499
13401.000			10.488			-1.498
13500.000			10.485			-1.498
13600.000			10.485			-1.498
13701.000			10.484			-1.498
13801.000			10.482			-1.497
13901.000			10.481			-1.497
14001.000			10.480			-1.497
14100.000			10.478			-1.497
14201.000			10.475			-1.496
14300.000			10.474			-1.496
14400.000			10.472			-1.496
14501.000			10.470			-1.496
14601.000			10.469			-1.496
14701.000			10.469			-1.496
14802.000			10.468			-1.495
14900.000			10.466			-1.495
15000.000			10.464			-1.495
15101.000			10.462			-1.495
15200.000			10.461			-1.494
15300.000			10.458			-1.494
15402.000			10.457			-1.494
15501.000			10.456			-1.494
15601.000			10.455			-1.494
15701.000			10.452			-1.493
15800.000			10.451			-1.493
15900.000			10.451			-1.493
16001.000			10.450			-1.493
16100.000			10.449			-1.493
16201.000			10.446			-1.492
16302.000			10.445			-1.492
16400.000			10.442			-1.492
16500.000			10.441			-1.492
16601.000			10.440			-1.491
16700.000			10.439			-1.491
16800.000			10.438			-1.491
16901.000			10.438			-1.491
17001.000			10.437			-1.491
17101.000			10.434			-1.491
17201.000			10.432			-1.490
17300.000			10.430			-1.490
17401.000			10.429			-1.490
17500.000			10.429			-1.490
17600.000			10.428			-1.490
17701.000			10.427			-1.490
17801.000			10.426			-1.489
17901.000			10.424			-1.489
18001.000			10.423			-1.489
18100.000			10.422			-1.489
18200.000			10.420			-1.489
18301.000			10.420			-1.489
18400.000			10.418			-1.488
18500.000			10.417			-1.488
18602.000			10.415			-1.488
18701.000			10.412			-1.487
18800.000			10.412			-1.487
18901.000			10.412			-1.487
19000.000			10.410			-1.487
19100.000			10.410			-1.487
19201.000			10.409			-1.487
19301.000			10.405			-1.486
19401.000			10.405			-1.486
19501.000			10.404			-1.486
19600.000			10.404			-1.486
19700.000			10.403			-1.486
19801.000			10.402			-1.486
19900.000			10.400			-1.486
20000.000			10.399			-1.486
20102.000			10.398			-1.485
20201.000			10.397			-1.485
20300.000			10.396			-1.485
20401.000			10.395			-1.485
20500.000			10.394			-1.485
20601.000			10.393			-1.485
20700.000			10.393			-1.485
20800.000			10.390			-1.484
20902.000			10.389			-1.484
21001.000			10.388			-1.484
21100.000			10.388			-1.484
21201.000			10.387			-1.484
21300.000			10.386			-1.484
21400.000			10.386			-1.484
21501.000			10.383			-1.483
21600.000			10.382			-1.483
21701.000			10.381			-1.483
21802.000			10.381			-1.483
21900.000			10.380			-1.483
22000.000			10.379			-1.483
22101.000			10.378			-1.483
22200.000			10.375			-1.482
22300.000			10.376			-1.482
22402.000			10.375			-1.482
22501.000			10.373			-1.482
22600.000			10.373			-1.482
22701.000			10.373			-1.482
22800.000			10.372			-1.482
22900.000			10.371			-1.482
23001.000			10.368			-1.481
23100.000			10.368			-1.481
23201.000			10.367			-1.481
23302.000			10.367			-1.481
23400.000			10.366			-1.481
23500.000			10.364			-1.481
23601.000			10.365			-1.481
23700.000			10.362			-1.480
23801.000			10.361			-1.480
23900.000			10.361			-1.480
24001.000			10.361			-1.480
24102.000			10.359			-1.480
24200.000			10.358			-1.480
24300.000			10.358			-1.480
24401.000			10.356			-1.479
24500.000			10.355			-1.479
24600.000			10.355			-1.479
24701.000			10.353			-1.479
24801.000			10.352			-1.479
24901.000			10.352			-1.479
25001.000			10.352			-1.479
25100.000			10.350			-1.479
25200.000			10.348			-1.478
25301.000			10.348			-1.478
25400.000			10.347			-1.478
25500.000			10.346			-1.478
25602.000			10.346			-1.478
25701.000			10.346			-1.478
25800.000			10.344			-1.478
25901.000			10.343			-1.478
26000.000			10.343			-1.478
26100.000			10.342			-1.477
26201.000			10.341			-1.477
26300.000			10.340			-1.477
26401.000			10.338			-1.477
26502.000			10.337			-1.477
26600.000			10.337			-1.477
26700.000			10.336			-1.477
26801.000			10.335			-1.476
26900.000			10.334			-1.476
27001.000			10.333			-1.476
27100.000			10.333			-1.476
27201.000			10.333			-1.476
27302.000			10.331			-1.476
27400.000			10.330			-1.476
27500.000			10.329			-1.476
27601.000			10.329			-1.476
27700.000			10.328			-1.475
27800.000			10.328			-1.475
27902.000			10.327			-1.475
28001.000			10.326			-1.475
28101.000			10.324			-1.475
28201.000			10.324			-1.475
28300.000			10.323			-1.475
28400.000			10.323			-1.475
28501.000			10.324			-1.475
28600.000			10.322			-1.475
28701.000			10.320			-1.474
28802.000			10.320			-1.474
28900.000			10.319			-1.474
29000.000			10.318			-1.474
29101.000			10.318			-1.474
29200.000			10.317			-1.474
29300.000			10.316			-1.474
29401.000			10.317			-1.474
29501.000			10.314			-1.473
29601.000			10.313			-1.473
29701.000			10.314			-1.473
29800.000			10.313			-1.473
29900.000			10.312			-1.473
30001.000			10.311			-1.473
30100.000			10.310			-1.473
30201.000			10.310			-1.473
30301.000			10.308			-1.473
30401.000			10.308			-1.473
30501.000			10.308			-1.473
30600.000			10.306			-1.472
30700.000			10.306			-1.472
30801.000			10.306			-1.472
30900.000			10.305			-1.472
31001.000			10.304			-1.472
31102.000			10.303			-1.472
31200.000			10.302			-1.472
31300.000			10.301			-1.472
31401.000			10.301			-1.472
31500.000			10.301			-1.472
31600.000			10.300			-1.471
31701.000			10.299			-1.471
31801.000			10.298			-1.471
31901.000			10.297			-1.471
32001.000			10.297			-1.471
32100.000			10.296			-1.471
32200.000			10.296			-1.471
32301.000			10.296			-1.471
32400.000			10.295			-1.471
32500.000			10.293			-1.470
32602.000			10.292			-1.470
32701.000			10.291			-1.470
32800.000			10.292			-1.470
32901.000			10.291			-1.470
33000.000			10.291			-1.470
33100.000			10.290			-1.470
33201.000			10.290			-1.470
33301.000			10.289			-1.470
33402.000			10.288			-1.470
33501.000			10.288			-1.470
33600.000			10.287			-1.470
33701.000			10.286			-1.469
33800.000			10.285			-1.469
33900.000			10.285			-1.469
34001.000			10.285			-1.469
34101.000			10.283			-1.469
34201.000			10.283			-1.469
34301.000			10.282			-1.469
34400.000			10.282			-1.469
34500.000			10.280			-1.469
34601.000			10.279			-1.468
34700.000			10.279			-1.468
34800.000			10.279			-1.468
34902.000			10.278			-1.468
35001.000			10.277			-1.468
35100.000			10.277			-1.468
35201.000			10.277			-1.468
35300.000			10.275			-1.468
35400.000			10.275			-1.468
35501.000			10.274			-1.468
35600.000			10.273			-1.468
35701.000			10.271			-1.467
35802.000			10.271			-1.467
35900.000			10.271			-1.467
36000.000			10.270			-1.467
36101.000			10.269			-1.467
36200.000			10.270			-1.467
36300.000			10.270			-1.467
36401.000			10.269			-1.467
36501.000			10.268			-1.467
36602.000			10.267			-1.467
36700.000			10.266			-1.467
36800.000			10.265			-1.466
36901.000			10.264			-1.466
37000.000			10.265			-1.466
37100.000			10.264			-1.466
37201.000			10.264			-1.466
37301.000			10.263			-1.466
37401.000			10.261			-1.466
37501.000			10.261			-1.466
37600.000			10.261			-1.466
37700.000			10.260			-1.466
37801.000			10.259			-1.466
37900.000			10.259			-1.466
38001.000			10.258			-1.465
38102.000			10.259			-1.466
38201.000			10.258			-1.465
38300.000			10.257			-1.465
38401.000			10.256			-1.465
38500.000			10.256			-1.465
38600.000			10.255			-1.465
38701.000			10.254			-1.465
38800.000			10.253			-1.465
38901.000			10.253			-1.465
39002.000			10.252			-1.465
39100.000			10.252			-1.465
39200.000			10.251			-1.464
39301.000			10.251			-1.464
39400.000			10.249			-1.464
39500.000			10.249			-1.464
39602.000			10.249			-1.464
39701.000			10.248			-1.464
39802.000			10.247			-1.464
39900.000			10.247			-1.464
40000.000			10.246			-1.464
40101.000			10.246			-1.464
40200.000			10.245			-1.464
40300.000			10.245			-1.464
40402.000			10.245			-1.464
40501.000			10.243			-1.463
40600.000			10.242			-1.463
40701.000			10.242			-1.463
40800.000			10.242			-1.463
40900.000			10.242			-1.463
41001.000			10.241			-1.463
41100.000			10.241			-1.463
41201.000			10.240			-1.463
41302.000			10.238			-1.463
41400.000			10.238			-1.463
41500.000			10.238			-1.463
41601.000			10.237			-1.462
41700.000			10.237			-1.462
41800.000			10.236			-1.462
41901.000			10.235			-1.462
42001.000			10.235			-1.462
42100.000			10.234			-1.462
42201.000			10.233			-1.462
42300.000			10.232			-1.462
42400.000			10.231			-1.462
42501.000			10.232			-1.462
42600.000			10.231			-1.462
42701.000			10.230			-1.461
42802.000			10.231			-1.462
42900.000			10.230			-1.461
43001.000			10.229			-1.461
43100.000			10.228			-1.461
43200.000			10.228			-1.461
43301.000			10.228			-1.461
43400.000			10.227			-1.461
43501.000			10.226			-1.461
43602.000			10.226			-1.461
43700.000			10.226			-1.461
43800.000			10.225			-1.461
43901.000			10.224			-1.461
44000.000			10.224			-1.461
44100.000			10.224			-1.461
44202.000			10.223			-1.460
44301.000			10.223			-1.460
44401.000			10.223			-1.460
44501.000			10.222			-1.460
44600.000			10.222			-1.460
44700.000			10.221			-1.460
44801.000			10.220			-1.460
44900.000			10.219			-1.460
45001.000			10.219			-1.460
45102.000			10.219			-1.460
45200.000			10.219			-1.460
45300.000			10.218			-1.460
45401.000			10.217			-1.460
45500.000			10.217			-1.460
45600.000			10.216			-1.459
45701.000			10.215			-1.459
45801.000			10.215			-1.459
45901.000			10.214			-1.459
46001.000			10.214			-1.459
46100.000			10.212			-1.459
46201.000			10.212			-1.459
46300.000			10.213			-1.459
46400.000			10.213			-1.459
46501.000			10.212			-1.459
46601.000			10.212			-1.459
46701.000			10.211			-1.459
46801.000			10.210			-1.459
46900.000			10.209			-1.458
47000.000			10.209			-1.458
47101.000			10.208			-1.458
47200.000			10.208			-1.458
47301.000			10.208			-1.458
47402.000			10.208			-1.458
47500.000			10.207			-1.458
47600.000			10.206			-1.458
47701.000			10.205			-1.458
47800.000			10.205			-1.458
47900.000			10.205			-1.458
48001.000			10.205			-1.458
48101.000			10.204			-1.458
48201.000			10.203			-1.458
48301.000			10.202			-1.457
48400.000			10.201			-1.457
48500.000			10.201			-1.457
48601.000			10.201			-1.457
48700.000			10.200			-1.457
48800.000			10.200			-1.457
48902.000			10.199			-1.457
49001.000			10.199			-1.457
49100.000			10.199			-1.457
49201.000			10.200			-1.457
49300.000			10.199			-1.457
49401.000			10.198			-1.457
49500.000			10.198			-1.457
49600.000			10.197			-1.457
49702.000			10.196			-1.457
49801.000			10.195			-1.456
49900.000			10.195			-1.456
50001.000			10.195			-1.456
50100.000			10.194			-1.456
50200.000			10.194			-1.456
50301.000			10.193			-1.456
50400.000			10.192			-1.456
50501.000			10.193			-1.456
50602.000			10.192			-1.456
50700.000			10.192			-1.456
50800.000			10.191			-1.456
50901.000			10.191			-1.456
51000.000			10.191			-1.456
51100.000			10.189			-1.456
51202.000			10.189			-1.456
51301.000			10.188			-1.455
51400.000			10.188			-1.455
51501.000			10.189			-1.456
51600.000			10.188			-1.455
51700.000			10.186			-1.455
51801.000			10.187			-1.455
51900.000			10.185			-1.455
52001.000			10.184			-1.455
52102.000			10.185			-1.455
52200.000			10.185			-1.455
52300.000			10.184			-1.455
52401.000			10.184			-1.455
52500.000			10.184			-1.455
52601.000			10.184			-1.455
52700.000			10.183			-1.455
52801.000			10.182			-1.455
52902.000			10.182			-1.455
53000.000			10.182			-1.455
53100.000			10.181			-1.454
53201.000			10.181			-1.454
53300.000			10.181			-1.454
53400.000			10.181			-1.454
53501.000			10.180			-1.454
53601.000			10.179			-1.454
53701.000			10.179			-1.454
53801.000			10.179			-1.454
53900.000			10.178			-1.454
54000.000			10.178			-1.454
54101.000			10.176			-1.454
54200.000			10.176			-1.454
54300.000			10.176			-1.454
54402.000			10.175			-1.454
54501.000			10.175			-1.454
54600.000			10.175			-1.454
54701.000			10.175			-1.454
54800.000			10.174			-1.453
54900.000			10.173			-1.453
55001.000			10.173			-1.453
55100.000			10.173			-1.453
55201.000			10.173			-1.453
55302.000			10.172			-1.453
55400.000			10.171			-1.453
55500.000			10.170			-1.453
55601.000			10.170			-1.453
55700.000			10.170			-1.453
55801.000			10.170			-1.453
55901.000			10.169			-1.453
56001.000			10.169			-1.453
56102.000			10.169			-1.453
56200.000			10.168			-1.453
56300.000			10.168			-1.453
56401.000			10.167			-1.452
56500.000			10.167			-1.452
56600.000			10.166			-1.452
56702.000			10.166			-1.452
56801.000			10.165			-1.452
56901.000			10.166			-1.452
57001.000			10.164			-1.452
57100.000			10.165			-1.452
57200.000			10.165			-1.452
57301.000			10.164			-1.452
57400.000			10.164			-1.452
57501.000			10.164			-1.452
57602.000			10.162			-1.452
57701.000			10.162			-1.452
57800.000			10.161			-1.452
57901.000			10.161			-1.452
58000.000			10.161			-1.452
58100.000			10.161			-1.452
58201.000			10.160			-1.451
58301.000			10.160			-1.451
58401.000			10.160			-1.451
58501.000			10.159			-1.451
58600.000			10.159			-1.451
58700.000			10.159			-1.451
58801.000			10.158			-1.451
58900.000			10.158			-1.451
59001.000			10.158			-1.451
59101.000			10.157			-1.451
59201.000			10.156			-1.451
59301.000			10.156			-1.451
59400.000			10.156			-1.451
59500.000			10.156			-1.451
59601.000			10.156			-1.451
59700.000			10.155			-1.451
59800.000			10.155			-1.451
59902.000			10.153			-1.450
60001.000			10.154			-1.451
60100.000			10.154			-1.451
60201.000			10.153			-1.450
60300.000			10.152			-1.450
60400.000			10.152			-1.450
60501.000			10.152			-1.450
60600.000			10.152			-1.450
60701.000			10.151			-1.450
60802.000			10.150			-1.450
60900.000			10.151			-1.450
61000.000			10.150			-1.450
61101.000			10.149			-1.450
61200.000			10.149			-1.450
61300.000			10.149			-1.450
61402.000			10.148			-1.450
61501.000			10.148			-1.450
61600.000			10.148			-1.450
61701.000			10.148			-1.450
61800.000			10.147			-1.450
61900.000			10.146			-1.449
62001.000			10.146			-1.449
62100.000			10.146			-1.449
62202.000			10.146			-1.449
62301.000			10.145			-1.449
62400.000			10.144			-1.449
62501.000			10.144			-1.449
62600.000			10.144			-1.449
62700.000			10.144			-1.449
62801.000			10.143			-1.449
62900.000			10.143			-1.449
63001.000			10.142			-1.449
63102.000			10.141			-1.449
63200.000			10.141			-1.449
63300.000			10.142			-1.449
63401.000			10.142			-1.449
63500.000			10.141			-1.449
63600.000			10.140			-1.449
63701.000			10.140			-1.449
63801.000			10.140			-1.449
63901.000			10.138			-1.448
64001.000			10.138			-1.448
64100.000			10.138			-1.448
64200.000			10.138			-1.448
64301.000			10.137			-1.448
64400.000			10.138			-1.448
64501.000			10.138			-1.448
64602.000			10.137			-1.448
64700.000			10.136			-1.448
64800.000			10.136			-1.448
64901.000			10.135			-1.448
65000.000			10.134			-1.448
65100.000			10.135			-1.448
65201.000			10.135			-1.448
65301.000			10.135			-1.448
65402.000			10.134			-1.448
65500.000			10.133			-1.448
65600.000			10.133			-1.448
65701.000			10.133			-1.448
65800.000			10.133			-1.448
65900.000			10.133			-1.448
66001.000			10.132			-1.447
66101.000			10.132			-1.447
66201.000			10.131			-1.447
66301.000			10.131			-1.447
66400.000			10.130			-1.447
66500.000			10.131			-1.447
66601.000			10.131			-1.447
66700.000			10.130			-1.447
66800.000			10.129			-1.447
66902.000			10.129			-1.447
67001.000			10.129			-1.447
67100.000			10.129			-1.447
67201.000			10.128			-1.447
67300.000			10.128			-1.447
67400.000			10.127			-1.447
67501.000			10.127			-1.447
67600.000			10.127			-1.447
67701.000			10.127			-1.447
67802.000			10.125			-1.446
67900.000			10.125			-1.446
68000.000			10.125			-1.446
68101.000			10.126			-1.447
68200.000			10.125			-1.446
68300.000			10.125			-1.446
68401.000			10.125			-1.446
68501.000			10.124			-1.446
68602.000			10.123			-1.446
68700.000			10.122			-1.446
68800.000			10.122			-1.446
68901.000			10.122			-1.446
69000.000			10.121			-1.446
69100.000			10.122			-1.446
69201.000			10.123			-1.446
69301.000			10.120			-1.446
69401.000			10.121			-1.446
69501.000			10.119			-1.446
69600.000			10.119			-1.446
69700.000			10.119			-1.446
69801.000			10.120			-1.446
69900.000			10.120			-1.446
70000.000			10.118			-1.445
70102.000			10.118			-1.445
70201.000			10.118			-1.445
70300.000			10.118			-1.445
70401.000			10.118			-1.445
70500.000			10.117			-1.445
70600.000			10.116			-1.445
70701.000			10.116			-1.445
70801.000			10.115			-1.445
70901.000			10.115			-1.445
71001.000			10.115			-1.445
71100.000			10.115			-1.445
71200.000			10.114			-1.445
