# Acquired on 29/01/2024 13:43:19 
# SPIDER: Creep_-7mm_HM077x145x38AB-2
# CREEP MEASUREMENT

# time [ms]		force [N]		stiffness [N/mm]
1.000			23.267			-3.324
105.000			24.251			-3.464
204.000			24.259			-3.466
304.000			24.186			-3.455
405.000			24.123			-3.446
504.000			24.071			-3.439
605.000			24.027			-3.432
703.000			23.989			-3.427
804.000			23.925			-3.418
905.000			23.896			-3.414
1004.000			23.871			-3.410
1104.000			23.848			-3.407
1204.000			23.825			-3.404
1304.000			23.804			-3.401
1404.000			23.784			-3.398
1505.000			23.747			-3.392
1604.000			23.732			-3.390
1704.000			23.715			-3.388
1805.000			23.700			-3.386
1903.000			23.684			-3.383
2004.000			23.669			-3.381
2105.000			23.656			-3.379
2204.000			23.632			-3.376
2304.000			23.618			-3.374
2405.000			23.607			-3.372
2504.000			23.596			-3.371
2603.000			23.584			-3.369
2705.000			23.573			-3.368
2804.000			23.562			-3.366
2904.000			23.542			-3.363
3005.000			23.532			-3.362
3103.000			23.522			-3.360
3204.000			23.514			-3.359
3305.000			23.506			-3.358
3404.000			23.497			-3.357
3504.000			23.488			-3.355
3604.000			23.479			-3.354
3704.000			23.463			-3.352
3803.000			23.455			-3.351
3904.000			23.447			-3.350
4004.000			23.439			-3.348
4105.000			23.432			-3.347
4204.000			23.425			-3.346
4303.000			23.417			-3.345
4405.000			23.403			-3.343
4504.000			23.396			-3.342
4604.000			23.389			-3.341
4705.000			23.382			-3.340
4804.000			23.376			-3.339
4904.000			23.370			-3.339
5004.000			23.364			-3.338
5104.000			23.351			-3.336
5204.000			23.346			-3.335
5305.000			23.340			-3.334
5404.000			23.334			-3.333
5504.000			23.328			-3.333
5605.000			23.322			-3.332
5704.000			23.316			-3.331
5804.000			23.310			-3.330
5905.000			23.299			-3.328
6004.000			23.294			-3.328
6104.000			23.290			-3.327
6204.000			23.285			-3.326
6304.000			23.279			-3.326
6404.000			23.274			-3.325
6505.000			23.270			-3.324
6604.000			23.259			-3.323
6704.000			23.255			-3.322
6805.000			23.250			-3.321
6903.000			23.246			-3.321
7005.000			23.241			-3.320
7104.000			23.236			-3.319
7204.000			23.232			-3.319
7305.000			23.222			-3.317
7404.000			23.218			-3.317
7504.000			23.214			-3.316
7605.000			23.210			-3.316
7704.000			23.205			-3.315
7804.000			23.201			-3.314
7905.000			23.197			-3.314
8004.000			23.189			-3.313
8103.000			23.186			-3.312
8205.000			23.181			-3.312
8304.000			23.176			-3.311
8404.000			23.173			-3.310
8505.000			23.169			-3.310
8604.000			23.166			-3.309
8704.000			23.162			-3.309
8804.000			23.154			-3.308
8904.000			23.150			-3.307
9004.000			23.147			-3.307
9105.000			23.143			-3.306
9204.000			23.139			-3.306
9303.000			23.135			-3.305
9405.000			23.132			-3.305
9504.000			23.126			-3.304
9604.000			23.122			-3.303
9705.000			23.118			-3.303
9804.000			23.115			-3.302
9904.000			23.112			-3.302
10003.000			23.108			-3.301
10104.000			23.105			-3.301
10205.000			23.099			-3.300
10304.000			23.096			-3.299
10404.000			23.092			-3.299
10504.000			23.089			-3.298
10604.000			23.086			-3.298
10704.000			23.083			-3.298
10805.000			23.080			-3.297
10904.000			23.073			-3.296
11004.000			23.071			-3.296
11105.000			23.068			-3.295
11203.000			23.063			-3.295
11304.000			23.059			-3.294
11405.000			23.056			-3.294
11504.000			23.054			-3.293
11604.000			23.051			-3.293
11705.000			23.045			-3.292
11804.000			23.042			-3.292
11903.000			23.040			-3.291
12005.000			23.037			-3.291
12104.000			23.034			-3.291
12204.000			23.031			-3.290
12305.000			23.027			-3.290
12403.000			23.022			-3.289
12504.000			23.020			-3.289
12605.000			23.017			-3.288
12704.000			23.014			-3.288
12804.000			23.011			-3.287
12905.000			23.009			-3.287
13004.000			23.006			-3.287
13103.000			23.001			-3.286
13205.000			22.998			-3.285
13304.000			22.996			-3.285
13405.000			22.995			-3.285
13504.000			22.991			-3.284
13603.000			22.988			-3.284
13705.000			22.986			-3.284
13804.000			22.980			-3.283
13904.000			22.978			-3.283
14005.000			22.976			-3.282
14104.000			22.973			-3.282
14204.000			22.969			-3.281
14304.000			22.968			-3.281
14404.000			22.965			-3.281
14504.000			22.962			-3.280
14605.000			22.958			-3.280
14704.000			22.956			-3.279
14804.000			22.953			-3.279
14905.000			22.951			-3.279
15003.000			22.949			-3.278
15104.000			22.946			-3.278
15205.000			22.945			-3.278
15304.000			22.942			-3.277
15404.000			22.939			-3.277
15505.000			22.937			-3.277
15604.000			22.934			-3.276
15703.000			22.932			-3.276
15805.000			22.929			-3.276
15904.000			22.926			-3.275
16004.000			22.923			-3.275
16105.000			22.919			-3.274
16204.000			22.916			-3.274
16304.000			22.914			-3.273
16403.000			22.913			-3.273
16504.000			22.911			-3.273
16605.000			22.908			-3.273
16704.000			22.906			-3.272
16804.000			22.902			-3.272
16905.000			22.900			-3.271
17004.000			22.898			-3.271
17103.000			22.896			-3.271
17205.000			22.894			-3.271
17304.000			22.893			-3.270
17404.000			22.891			-3.270
17505.000			22.885			-3.269
17604.000			22.883			-3.269
17704.000			22.881			-3.269
17804.000			22.880			-3.269
17904.000			22.878			-3.268
18004.000			22.876			-3.268
18105.000			22.874			-3.268
18204.000			22.870			-3.267
18304.000			22.868			-3.267
18405.000			22.866			-3.267
18503.000			22.864			-3.266
18604.000			22.863			-3.266
18705.000			22.861			-3.266
18804.000			22.858			-3.265
18904.000			22.854			-3.265
19005.000			22.852			-3.265
19104.000			22.850			-3.264
19203.000			22.850			-3.264
19305.000			22.848			-3.264
19404.000			22.846			-3.264
19504.000			22.844			-3.263
19605.000			22.841			-3.263
19704.000			22.839			-3.263
19805.000			22.837			-3.262
19903.000			22.835			-3.262
20004.000			22.833			-3.262
20105.000			22.832			-3.262
20204.000			22.830			-3.261
20304.000			22.828			-3.261
20405.000			22.823			-3.260
20504.000			22.822			-3.260
20603.000			22.820			-3.260
20705.000			22.819			-3.260
20804.000			22.818			-3.260
20904.000			22.817			-3.260
21005.000			22.814			-3.259
21103.000			22.810			-3.259
21204.000			22.808			-3.258
21305.000			22.807			-3.258
21404.000			22.806			-3.258
21504.000			22.804			-3.258
21605.000			22.802			-3.257
21704.000			22.800			-3.257
21803.000			22.796			-3.257
21905.000			22.795			-3.256
22004.000			22.793			-3.256
22104.000			22.792			-3.256
22205.000			22.790			-3.256
22304.000			22.789			-3.256
22404.000			22.788			-3.255
22504.000			22.786			-3.255
22604.000			22.782			-3.255
22704.000			22.780			-3.254
22804.000			22.780			-3.254
22904.000			22.779			-3.254
23005.000			22.777			-3.254
23104.000			22.775			-3.254
23203.000			22.773			-3.253
23305.000			22.770			-3.253
23404.000			22.768			-3.253
23504.000			22.766			-3.252
23605.000			22.764			-3.252
23703.000			22.763			-3.252
23804.000			22.763			-3.252
23905.000			22.761			-3.252
24004.000			22.758			-3.251
24104.000			22.757			-3.251
24205.000			22.756			-3.251
24304.000			22.754			-3.251
24403.000			22.752			-3.250
24505.000			22.750			-3.250
24604.000			22.751			-3.250
24704.000			22.749			-3.250
24805.000			22.746			-3.249
24904.000			22.743			-3.249
25004.000			22.742			-3.249
25104.000			22.741			-3.249
25204.000			22.739			-3.248
25304.000			22.738			-3.248
25405.000			22.736			-3.248
25504.000			22.734			-3.248
25604.000			22.732			-3.247
25705.000			22.730			-3.247
25803.000			22.728			-3.247
25904.000			22.728			-3.247
26005.000			22.726			-3.247
26104.000			22.726			-3.247
26205.000			22.722			-3.246
26304.000			22.721			-3.246
26404.000			22.719			-3.246
26504.000			22.717			-3.245
26604.000			22.717			-3.245
26704.000			22.714			-3.245
26805.000			22.713			-3.245
26904.000			22.711			-3.244
27004.000			22.710			-3.244
27105.000			22.708			-3.244
27203.000			22.707			-3.244
27304.000			22.706			-3.244
27405.000			22.704			-3.243
27504.000			22.703			-3.243
27604.000			22.701			-3.243
27704.000			22.700			-3.243
27804.000			22.698			-3.243
27904.000			22.697			-3.242
28005.000			22.695			-3.242
28104.000			22.693			-3.242
28204.000			22.693			-3.242
28305.000			22.692			-3.242
28403.000			22.688			-3.241
28504.000			22.687			-3.241
28605.000			22.686			-3.241
28704.000			22.685			-3.241
28804.000			22.683			-3.240
28905.000			22.681			-3.240
29004.000			22.680			-3.240
29103.000			22.678			-3.240
29205.000			22.677			-3.240
29304.000			22.676			-3.239
29405.000			22.674			-3.239
29504.000			22.674			-3.239
29604.000			22.672			-3.239
29705.000			22.671			-3.239
29803.000			22.670			-3.239
29904.000			22.668			-3.238
30004.000			22.667			-3.238
30104.000			22.665			-3.238
30204.000			22.665			-3.238
30305.000			22.662			-3.237
30404.000			22.662			-3.237
30503.000			22.661			-3.237
30605.000			22.657			-3.237
30704.000			22.655			-3.236
30804.000			22.654			-3.236
30905.000			22.654			-3.236
31004.000			22.653			-3.236
31104.000			22.651			-3.236
31204.000			22.650			-3.236
31304.000			22.648			-3.235
31404.000			22.647			-3.235
31505.000			22.646			-3.235
31604.000			22.644			-3.235
31703.000			22.643			-3.235
31805.000			22.642			-3.235
31904.000			22.640			-3.234
32004.000			22.639			-3.234
32105.000			22.638			-3.234
32204.000			22.637			-3.234
32304.000			22.635			-3.234
32403.000			22.633			-3.233
32504.000			22.632			-3.233
32605.000			22.632			-3.233
32704.000			22.630			-3.233
32804.000			22.627			-3.232
32905.000			22.626			-3.232
33004.000			22.624			-3.232
33103.000			22.623			-3.232
33205.000			22.624			-3.232
33304.000			22.623			-3.232
33404.000			22.621			-3.232
33505.000			22.619			-3.231
33604.000			22.618			-3.231
33704.000			22.618			-3.231
33804.000			22.615			-3.231
33904.000			22.614			-3.231
34004.000			22.613			-3.230
34105.000			22.613			-3.230
34204.000			22.611			-3.230
34303.000			22.609			-3.230
34405.000			22.608			-3.230
34504.000			22.606			-3.229
34604.000			22.606			-3.229
34705.000			22.605			-3.229
34804.000			22.604			-3.229
34904.000			22.601			-3.229
35004.000			22.600			-3.229
35104.000			22.598			-3.228
35204.000			22.597			-3.228
35305.000			22.597			-3.228
35404.000			22.596			-3.228
35504.000			22.595			-3.228
35605.000			22.595			-3.228
35703.000			22.592			-3.227
35805.000			22.592			-3.227
35904.000			22.590			-3.227
36004.000			22.589			-3.227
36105.000			22.589			-3.227
36204.000			22.587			-3.227
36304.000			22.586			-3.227
36404.000			22.583			-3.226
36504.000			22.583			-3.226
36604.000			22.582			-3.226
36705.000			22.582			-3.226
36804.000			22.581			-3.226
36904.000			22.581			-3.226
37005.000			22.579			-3.226
37103.000			22.575			-3.225
37204.000			22.575			-3.225
37305.000			22.574			-3.225
37404.000			22.572			-3.225
37504.000			22.571			-3.224
37604.000			22.571			-3.224
37704.000			22.569			-3.224
37803.000			22.568			-3.224
37905.000			22.567			-3.224
38004.000			22.566			-3.224
38104.000			22.565			-3.224
38205.000			22.564			-3.223
38303.000			22.563			-3.223
38404.000			22.562			-3.223
38505.000			22.561			-3.223
38604.000			22.559			-3.223
38704.000			22.557			-3.222
38804.000			22.556			-3.222
38904.000			22.555			-3.222
39003.000			22.555			-3.222
39104.000			22.554			-3.222
39204.000			22.554			-3.222
39305.000			22.552			-3.222
39404.000			22.551			-3.222
39504.000			22.550			-3.221
39605.000			22.549			-3.221
39703.000			22.547			-3.221
39804.000			22.546			-3.221
39905.000			22.546			-3.221
40004.000			22.542			-3.220
40104.000			22.542			-3.220
40205.000			22.541			-3.220
40304.000			22.540			-3.220
40403.000			22.539			-3.220
40505.000			22.538			-3.220
40604.000			22.537			-3.220
40704.000			22.537			-3.220
40805.000			22.534			-3.219
40904.000			22.533			-3.219
41004.000			22.532			-3.219
41104.000			22.532			-3.219
41204.000			22.531			-3.219
41304.000			22.530			-3.219
41405.000			22.529			-3.218
41504.000			22.527			-3.218
41603.000			22.527			-3.218
41705.000			22.527			-3.218
41804.000			22.525			-3.218
41904.000			22.524			-3.218
42005.000			22.523			-3.218
42104.000			22.522			-3.217
42205.000			22.520			-3.217
42303.000			22.518			-3.217
42404.000			22.518			-3.217
42505.000			22.517			-3.217
42604.000			22.516			-3.217
42704.000			22.515			-3.216
42805.000			22.514			-3.216
42904.000			22.513			-3.216
43003.000			22.513			-3.216
43105.000			22.512			-3.216
43204.000			22.511			-3.216
43304.000			22.509			-3.216
43405.000			22.509			-3.216
43503.000			22.508			-3.215
43604.000			22.507			-3.215
43705.000			22.505			-3.215
43804.000			22.504			-3.215
43904.000			22.503			-3.215
44005.000			22.502			-3.215
44104.000			22.501			-3.214
44203.000			22.501			-3.214
44305.000			22.501			-3.214
44404.000			22.498			-3.214
44504.000			22.497			-3.214
44605.000			22.496			-3.214
44704.000			22.496			-3.214
44804.000			22.496			-3.214
44904.000			22.493			-3.213
45004.000			22.493			-3.213
45104.000			22.492			-3.213
45204.000			22.490			-3.213
45304.000			22.490			-3.213
45403.000			22.489			-3.213
45504.000			22.488			-3.213
45603.000			22.486			-3.212
45705.000			22.486			-3.212
45804.000			22.485			-3.212
45904.000			22.484			-3.212
46005.000			22.484			-3.212
46103.000			22.484			-3.212
46204.000			22.482			-3.212
46305.000			22.481			-3.212
46404.000			22.481			-3.212
46504.000			22.480			-3.211
46605.000			22.477			-3.211
46704.000			22.477			-3.211
46803.000			22.477			-3.211
46905.000			22.476			-3.211
47004.000			22.475			-3.211
47104.000			22.474			-3.211
47205.000			22.473			-3.210
47304.000			22.471			-3.210
47404.000			22.471			-3.210
47504.000			22.470			-3.210
47604.000			22.468			-3.210
47704.000			22.468			-3.210
47805.000			22.467			-3.210
47904.000			22.466			-3.209
48004.000			22.465			-3.209
48105.000			22.465			-3.209
48203.000			22.463			-3.209
48304.000			22.462			-3.209
48405.000			22.462			-3.209
48504.000			22.462			-3.209
48605.000			22.461			-3.209
48704.000			22.459			-3.208
48804.000			22.458			-3.208
48904.000			22.458			-3.208
49004.000			22.457			-3.208
49104.000			22.456			-3.208
49205.000			22.455			-3.208
49304.000			22.455			-3.208
49404.000			22.453			-3.208
49505.000			22.452			-3.207
49603.000			22.451			-3.207
49704.000			22.451			-3.207
49805.000			22.450			-3.207
49904.000			22.448			-3.207
50004.000			22.448			-3.207
50105.000			22.446			-3.207
50204.000			22.446			-3.207
50303.000			22.445			-3.206
50405.000			22.444			-3.206
50504.000			22.442			-3.206
50604.000			22.441			-3.206
50705.000			22.441			-3.206
50803.000			22.440			-3.206
50904.000			22.439			-3.206
51005.000			22.438			-3.205
51104.000			22.436			-3.205
51204.000			22.436			-3.205
51305.000			22.436			-3.205
51404.000			22.435			-3.205
51503.000			22.433			-3.205
51605.000			22.433			-3.205
51704.000			22.432			-3.205
51805.000			22.432			-3.205
51904.000			22.430			-3.204
52004.000			22.430			-3.204
52105.000			22.430			-3.204
52203.000			22.428			-3.204
52304.000			22.427			-3.204
52405.000			22.427			-3.204
52504.000			22.425			-3.204
52604.000			22.424			-3.203
52704.000			22.424			-3.203
52804.000			22.423			-3.203
52904.000			22.422			-3.203
53005.000			22.422			-3.203
53104.000			22.420			-3.203
53204.000			22.420			-3.203
53305.000			22.419			-3.203
53403.000			22.418			-3.203
53504.000			22.417			-3.202
53605.000			22.416			-3.202
53704.000			22.415			-3.202
53804.000			22.415			-3.202
53905.000			22.414			-3.202
54004.000			22.413			-3.202
54103.000			22.412			-3.202
54205.000			22.411			-3.202
54304.000			22.410			-3.201
54404.000			22.410			-3.201
54505.000			22.410			-3.201
54604.000			22.407			-3.201
54704.000			22.406			-3.201
54803.000			22.405			-3.201
54904.000			22.406			-3.201
55005.000			22.405			-3.201
55104.000			22.404			-3.201
55204.000			22.403			-3.200
55304.000			22.403			-3.200
55404.000			22.402			-3.200
55504.000			22.402			-3.200
55605.000			22.400			-3.200
55704.000			22.399			-3.200
55804.000			22.399			-3.200
55905.000			22.399			-3.200
56003.000			22.398			-3.200
56104.000			22.397			-3.200
56205.000			22.395			-3.199
56304.000			22.395			-3.199
56404.000			22.394			-3.199
56505.000			22.393			-3.199
56604.000			22.392			-3.199
56703.000			22.392			-3.199
56805.000			22.391			-3.199
56904.000			22.390			-3.199
57004.000			22.389			-3.198
57105.000			22.388			-3.198
57204.000			22.388			-3.198
57304.000			22.387			-3.198
57404.000			22.387			-3.198
57504.000			22.386			-3.198
57604.000			22.385			-3.198
57705.000			22.383			-3.198
57804.000			22.382			-3.197
57904.000			22.382			-3.197
58005.000			22.382			-3.197
58103.000			22.381			-3.197
58205.000			22.380			-3.197
58304.000			22.379			-3.197
58404.000			22.378			-3.197
58505.000			22.378			-3.197
58604.000			22.377			-3.197
58704.000			22.376			-3.197
58804.000			22.376			-3.197
58904.000			22.374			-3.196
59004.000			22.374			-3.196
59105.000			22.373			-3.196
59204.000			22.373			-3.196
59304.000			22.373			-3.196
59405.000			22.371			-3.196
59503.000			22.371			-3.196
59604.000			22.371			-3.196
59705.000			22.369			-3.196
59804.000			22.368			-3.195
59904.000			22.367			-3.195
60005.000			22.367			-3.195
60104.000			22.366			-3.195
60203.000			22.366			-3.195
60305.000			22.366			-3.195
60404.000			22.364			-3.195
60504.000			22.362			-3.195
60605.000			22.362			-3.195
60704.000			22.362			-3.195
60804.000			22.361			-3.194
60904.000			22.360			-3.194
61004.000			22.359			-3.194
61104.000			22.359			-3.194
61204.000			22.358			-3.194
61304.000			22.357			-3.194
61405.000			22.356			-3.194
61504.000			22.355			-3.194
61603.000			22.355			-3.194
61705.000			22.355			-3.194
61804.000			22.354			-3.193
61904.000			22.353			-3.193
62005.000			22.351			-3.193
62103.000			22.351			-3.193
62204.000			22.350			-3.193
62305.000			22.350			-3.193
62404.000			22.349			-3.193
62504.000			22.347			-3.192
62605.000			22.346			-3.192
62704.000			22.346			-3.192
62803.000			22.346			-3.192
62905.000			22.346			-3.192
63004.000			22.346			-3.192
63104.000			22.346			-3.192
63205.000			22.344			-3.192
63304.000			22.342			-3.192
63404.000			22.342			-3.192
63504.000			22.341			-3.192
63604.000			22.340			-3.191
63704.000			22.340			-3.191
63805.000			22.340			-3.191
63904.000			22.339			-3.191
64003.000			22.338			-3.191
64105.000			22.337			-3.191
64204.000			22.336			-3.191
64304.000			22.336			-3.191
64405.000			22.335			-3.191
64504.000			22.335			-3.191
64605.000			22.334			-3.191
64703.000			22.333			-3.190
64804.000			22.332			-3.190
64905.000			22.331			-3.190
65004.000			22.331			-3.190
65104.000			22.330			-3.190
65205.000			22.330			-3.190
65304.000			22.329			-3.190
65403.000			22.328			-3.190
65505.000			22.327			-3.190
65604.000			22.327			-3.190
65704.000			22.326			-3.189
65805.000			22.326			-3.189
65904.000			22.324			-3.189
66004.000			22.323			-3.189
66104.000			22.323			-3.189
66204.000			22.323			-3.189
66304.000			22.321			-3.189
66405.000			22.321			-3.189
66504.000			22.320			-3.189
66604.000			22.320			-3.189
66705.000			22.319			-3.188
66803.000			22.319			-3.188
66904.000			22.319			-3.188
67005.000			22.316			-3.188
67104.000			22.316			-3.188
67204.000			22.316			-3.188
67304.000			22.315			-3.188
67404.000			22.315			-3.188
67503.000			22.315			-3.188
67605.000			22.314			-3.188
67704.000			22.312			-3.187
67805.000			22.312			-3.187
67904.000			22.311			-3.187
68003.000			22.311			-3.187
68105.000			22.310			-3.187
68204.000			22.309			-3.187
68304.000			22.309			-3.187
68405.000			22.309			-3.187
68504.000			22.308			-3.187
68604.000			22.307			-3.187
68704.000			22.306			-3.187
68804.000			22.305			-3.186
68904.000			22.305			-3.186
69005.000			22.304			-3.186
69104.000			22.303			-3.186
69204.000			22.303			-3.186
69305.000			22.302			-3.186
69403.000			22.301			-3.186
69504.000			22.301			-3.186
69605.000			22.299			-3.186
69704.000			22.300			-3.186
69804.000			22.299			-3.186
69905.000			22.297			-3.185
70004.000			22.297			-3.185
70103.000			22.297			-3.185
70205.000			22.297			-3.185
70304.000			22.296			-3.185
70404.000			22.295			-3.185
70505.000			22.294			-3.185
70604.000			22.293			-3.185
70704.000			22.293			-3.185
70803.000			22.292			-3.185
70904.000			22.291			-3.184
71005.000			22.291			-3.184
71104.000			22.290			-3.184
71204.000			22.290			-3.184
