# Acquired on 26/01/2024 16:46:49 
# SPIDER: Creep_-9mm_GRPCNT1454A-2
# CREEP MEASUREMENT

# time [ms]		force [N]		stiffness [N/mm]
1.000			38.270			-4.252
104.000			38.778			-4.309
204.000			38.666			-4.296
305.000			38.330			-4.259
404.000			38.060			-4.229
504.000			37.844			-4.205
605.000			37.507			-4.167
704.000			37.367			-4.152
804.000			37.244			-4.138
904.000			37.132			-4.126
1004.000			37.030			-4.114
1104.000			36.935			-4.104
1204.000			36.848			-4.094
1304.000			36.690			-4.077
1405.000			36.619			-4.069
1504.000			36.552			-4.061
1603.000			36.489			-4.054
1705.000			36.429			-4.048
1804.000			36.372			-4.041
1904.000			36.319			-4.035
2005.000			36.267			-4.030
2104.000			36.169			-4.019
2204.000			36.123			-4.014
2304.000			36.080			-4.009
2404.000			36.038			-4.004
2504.000			35.997			-4.000
2605.000			35.958			-3.995
2704.000			35.920			-3.991
2803.000			35.847			-3.983
2905.000			35.814			-3.979
3004.000			35.781			-3.976
3104.000			35.749			-3.972
3205.000			35.717			-3.969
3304.000			35.685			-3.965
3404.000			35.656			-3.962
3504.000			35.600			-3.956
3604.000			35.572			-3.952
3704.000			35.544			-3.949
3805.000			35.518			-3.946
3904.000			35.493			-3.944
4003.000			35.468			-3.941
4105.000			35.444			-3.938
4204.000			35.421			-3.936
4304.000			35.373			-3.930
4405.000			35.351			-3.928
4504.000			35.329			-3.925
4605.000			35.308			-3.923
4703.000			35.286			-3.921
4804.000			35.265			-3.918
4905.000			35.247			-3.916
5004.000			35.205			-3.912
5104.000			35.186			-3.910
5205.000			35.168			-3.908
5304.000			35.149			-3.905
5403.000			35.131			-3.903
5505.000			35.113			-3.901
5604.000			35.094			-3.899
5704.000			35.061			-3.896
5805.000			35.044			-3.894
5903.000			35.028			-3.892
6004.000			35.011			-3.890
6105.000			34.996			-3.888
6204.000			34.980			-3.887
6304.000			34.964			-3.885
6405.000			34.934			-3.882
6504.000			34.919			-3.880
6603.000			34.904			-3.878
6705.000			34.889			-3.877
6804.000			34.876			-3.875
6904.000			34.862			-3.874
7005.000			34.846			-3.872
7104.000			34.832			-3.870
7204.000			34.806			-3.867
7304.000			34.794			-3.866
7404.000			34.780			-3.864
7504.000			34.767			-3.863
7604.000			34.755			-3.862
7704.000			34.742			-3.860
7805.000			34.730			-3.859
7904.000			34.704			-3.856
8003.000			34.692			-3.855
8105.000			34.680			-3.853
8204.000			34.670			-3.852
8304.000			34.657			-3.851
8405.000			34.645			-3.849
8503.000			34.635			-3.848
8604.000			34.612			-3.846
8705.000			34.601			-3.845
8804.000			34.591			-3.843
8904.000			34.580			-3.842
9005.000			34.568			-3.841
9104.000			34.556			-3.840
9203.000			34.546			-3.838
9305.000			34.537			-3.837
9404.000			34.516			-3.835
9504.000			34.506			-3.834
9605.000			34.496			-3.833
9704.000			34.487			-3.832
9804.000			34.476			-3.831
9904.000			34.467			-3.830
10004.000			34.458			-3.829
10104.000			34.439			-3.827
10205.000			34.429			-3.825
10304.000			34.420			-3.824
10403.000			34.411			-3.823
10505.000			34.402			-3.822
10604.000			34.393			-3.821
10704.000			34.384			-3.820
10805.000			34.366			-3.818
10904.000			34.357			-3.817
11005.000			34.348			-3.816
11103.000			34.340			-3.816
11204.000			34.332			-3.815
11305.000			34.322			-3.814
11404.000			34.315			-3.813
11504.000			34.306			-3.812
11605.000			34.290			-3.810
11704.000			34.282			-3.809
11803.000			34.274			-3.808
11905.000			34.265			-3.807
12004.000			34.258			-3.806
12104.000			34.251			-3.806
12205.000			34.243			-3.805
12304.000			34.228			-3.803
12404.000			34.219			-3.802
12505.000			34.212			-3.801
12604.000			34.204			-3.800
12704.000			34.197			-3.800
12805.000			34.190			-3.799
12904.000			34.183			-3.798
13003.000			34.168			-3.796
13105.000			34.160			-3.796
13204.000			34.153			-3.795
13304.000			34.146			-3.794
13405.000			34.139			-3.793
13504.000			34.132			-3.792
13604.000			34.125			-3.792
13704.000			34.112			-3.790
13804.000			34.104			-3.789
13904.000			34.097			-3.789
14004.000			34.091			-3.788
14104.000			34.084			-3.787
14205.000			34.076			-3.786
14304.000			34.070			-3.786
14403.000			34.064			-3.785
14505.000			34.052			-3.784
14604.000			34.046			-3.783
14704.000			34.037			-3.782
14805.000			34.031			-3.781
14904.000			34.025			-3.781
15004.000			34.019			-3.780
15104.000			34.012			-3.779
15204.000			33.999			-3.778
15304.000			33.993			-3.777
15405.000			33.987			-3.776
15504.000			33.982			-3.776
15604.000			33.976			-3.775
15705.000			33.971			-3.775
15803.000			33.966			-3.774
15904.000			33.953			-3.773
16005.000			33.948			-3.772
16104.000			33.941			-3.771
16204.000			33.935			-3.771
16304.000			33.929			-3.770
16404.000			33.923			-3.769
16503.000			33.917			-3.769
16605.000			33.912			-3.768
16704.000			33.900			-3.767
16804.000			33.894			-3.766
16905.000			33.889			-3.765
17003.000			33.884			-3.765
17104.000			33.878			-3.764
17203.000			33.873			-3.764
17304.000			33.868			-3.763
17405.000			33.857			-3.762
17504.000			33.852			-3.761
17604.000			33.846			-3.761
17704.000			33.841			-3.760
17804.000			33.836			-3.760
17903.000			33.831			-3.759
18005.000			33.828			-3.759
18104.000			33.816			-3.757
18204.000			33.810			-3.757
18305.000			33.805			-3.756
18403.000			33.799			-3.755
18504.000			33.794			-3.755
18605.000			33.790			-3.754
18704.000			33.785			-3.754
18804.000			33.774			-3.753
18905.000			33.770			-3.752
19004.000			33.765			-3.752
19104.000			33.760			-3.751
19205.000			33.755			-3.751
19303.000			33.751			-3.750
19404.000			33.745			-3.749
19505.000			33.740			-3.749
19604.000			33.732			-3.748
19704.000			33.727			-3.747
19804.000			33.722			-3.747
19904.000			33.718			-3.746
20003.000			33.712			-3.746
20105.000			33.708			-3.745
20204.000			33.704			-3.745
20304.000			33.695			-3.744
20405.000			33.690			-3.743
20503.000			33.686			-3.743
20605.000			33.681			-3.742
20704.000			33.677			-3.742
20804.000			33.673			-3.741
20905.000			33.668			-3.741
21004.000			33.659			-3.740
21104.000			33.654			-3.739
21204.000			33.649			-3.739
21304.000			33.645			-3.738
21404.000			33.640			-3.738
21505.000			33.637			-3.737
21604.000			33.632			-3.737
21704.000			33.628			-3.736
21805.000			33.618			-3.735
21903.000			33.615			-3.735
22004.000			33.612			-3.735
22105.000			33.607			-3.734
22204.000			33.603			-3.734
22304.000			33.597			-3.733
22404.000			33.593			-3.733
22504.000			33.587			-3.732
22604.000			33.582			-3.731
22705.000			33.577			-3.731
22804.000			33.573			-3.730
22904.000			33.569			-3.730
23005.000			33.566			-3.730
23103.000			33.562			-3.729
23204.000			33.554			-3.728
23305.000			33.550			-3.728
23404.000			33.545			-3.727
23504.000			33.542			-3.727
23604.000			33.538			-3.726
23704.000			33.535			-3.726
23803.000			33.532			-3.726
23904.000			33.522			-3.725
24004.000			33.519			-3.724
24105.000			33.515			-3.724
24204.000			33.512			-3.724
24304.000			33.508			-3.723
24405.000			33.505			-3.723
24503.000			33.500			-3.722
24604.000			33.495			-3.722
24705.000			33.488			-3.721
24804.000			33.483			-3.720
24904.000			33.481			-3.720
25005.000			33.477			-3.720
25104.000			33.474			-3.719
25203.000			33.469			-3.719
25305.000			33.465			-3.718
25404.000			33.458			-3.718
25504.000			33.455			-3.717
25605.000			33.451			-3.717
25704.000			33.448			-3.716
25804.000			33.445			-3.716
25904.000			33.440			-3.716
26004.000			33.436			-3.715
26104.000			33.429			-3.714
26205.000			33.427			-3.714
26304.000			33.423			-3.714
26404.000			33.420			-3.713
26505.000			33.416			-3.713
26604.000			33.413			-3.713
26704.000			33.409			-3.712
26805.000			33.406			-3.712
26904.000			33.398			-3.711
27005.000			33.394			-3.710
27103.000			33.391			-3.710
27204.000			33.387			-3.710
27305.000			33.385			-3.709
27404.000			33.382			-3.709
27504.000			33.378			-3.709
27605.000			33.372			-3.708
27704.000			33.369			-3.708
27803.000			33.366			-3.707
27905.000			33.362			-3.707
28004.000			33.358			-3.706
28104.000			33.355			-3.706
28205.000			33.352			-3.706
28304.000			33.346			-3.705
28404.000			33.342			-3.705
28504.000			33.339			-3.704
28604.000			33.336			-3.704
28704.000			33.333			-3.704
28805.000			33.330			-3.703
28904.000			33.325			-3.703
29004.000			33.321			-3.702
29105.000			33.317			-3.702
29203.000			33.313			-3.701
29304.000			33.310			-3.701
29405.000			33.308			-3.701
29504.000			33.305			-3.701
29604.000			33.300			-3.700
29705.000			33.297			-3.700
29804.000			33.291			-3.699
29903.000			33.288			-3.699
30005.000			33.285			-3.698
30104.000			33.282			-3.698
30205.000			33.279			-3.698
30304.000			33.276			-3.697
30404.000			33.273			-3.697
30505.000			33.267			-3.696
30603.000			33.264			-3.696
30704.000			33.261			-3.696
30805.000			33.258			-3.695
30904.000			33.256			-3.695
31004.000			33.253			-3.695
31105.000			33.250			-3.694
31204.000			33.244			-3.694
31303.000			33.241			-3.693
31405.000			33.238			-3.693
31504.000			33.236			-3.693
31604.000			33.233			-3.693
31705.000			33.230			-3.692
31803.000			33.226			-3.692
31904.000			33.224			-3.692
32005.000			33.220			-3.691
32104.000			33.217			-3.691
32204.000			33.213			-3.690
32305.000			33.211			-3.690
32404.000			33.208			-3.690
32503.000			33.204			-3.689
32605.000			33.201			-3.689
32704.000			33.197			-3.689
32804.000			33.194			-3.688
32905.000			33.191			-3.688
33003.000			33.188			-3.688
33104.000			33.185			-3.687
33205.000			33.182			-3.687
33304.000			33.180			-3.687
33405.000			33.175			-3.686
33504.000			33.172			-3.686
33604.000			33.169			-3.685
33704.000			33.167			-3.685
33804.000			33.164			-3.685
33904.000			33.162			-3.685
34005.000			33.159			-3.684
34104.000			33.153			-3.684
34204.000			33.152			-3.684
34305.000			33.149			-3.683
34403.000			33.145			-3.683
34504.000			33.142			-3.682
34605.000			33.139			-3.682
34704.000			33.137			-3.682
34804.000			33.135			-3.682
34905.000			33.129			-3.681
35004.000			33.127			-3.681
35103.000			33.125			-3.681
35205.000			33.122			-3.680
35304.000			33.119			-3.680
35404.000			33.117			-3.680
35505.000			33.115			-3.679
35603.000			33.108			-3.679
35704.000			33.105			-3.678
35805.000			33.103			-3.678
35904.000			33.101			-3.678
36004.000			33.098			-3.678
36105.000			33.096			-3.677
36204.000			33.094			-3.677
36303.000			33.089			-3.677
36405.000			33.086			-3.676
36504.000			33.082			-3.676
36605.000			33.080			-3.676
36704.000			33.077			-3.675
36804.000			33.075			-3.675
36905.000			33.074			-3.675
37003.000			33.071			-3.675
37104.000			33.066			-3.674
37205.000			33.063			-3.674
37304.000			33.061			-3.673
37404.000			33.058			-3.673
37505.000			33.055			-3.673
37604.000			33.052			-3.672
37703.000			33.050			-3.672
37805.000			33.046			-3.672
37904.000			33.043			-3.671
38004.000			33.040			-3.671
38105.000			33.038			-3.671
38204.000			33.035			-3.671
38304.000			33.033			-3.670
38405.000			33.030			-3.670
38504.000			33.025			-3.669
38604.000			33.023			-3.669
38705.000			33.021			-3.669
38804.000			33.018			-3.669
38903.000			33.017			-3.669
39005.000			33.014			-3.668
39104.000			33.011			-3.668
39204.000			33.007			-3.667
39305.000			33.005			-3.667
39404.000			33.003			-3.667
39504.000			33.001			-3.667
39603.000			32.999			-3.667
39704.000			32.997			-3.666
39805.000			32.995			-3.666
39904.000			32.991			-3.666
40004.000			32.986			-3.665
40105.000			32.984			-3.665
40204.000			32.981			-3.665
40303.000			32.979			-3.664
40405.000			32.977			-3.664
40504.000			32.975			-3.664
40604.000			32.973			-3.664
40705.000			32.968			-3.663
40804.000			32.966			-3.663
40904.000			32.964			-3.663
41004.000			32.961			-3.662
41104.000			32.959			-3.662
41204.000			32.956			-3.662
41305.000			32.954			-3.662
41404.000			32.950			-3.661
41504.000			32.948			-3.661
41605.000			32.946			-3.661
41703.000			32.944			-3.660
41804.000			32.942			-3.660
41905.000			32.940			-3.660
42004.000			32.938			-3.660
42104.000			32.933			-3.659
42204.000			32.930			-3.659
42304.000			32.927			-3.659
42403.000			32.926			-3.658
42505.000			32.923			-3.658
42604.000			32.922			-3.658
42704.000			32.920			-3.658
42805.000			32.918			-3.658
42903.000			32.912			-3.657
43005.000			32.911			-3.657
43104.000			32.908			-3.656
43204.000			32.906			-3.656
43305.000			32.905			-3.656
43404.000			32.901			-3.656
43504.000			32.900			-3.656
43604.000			32.896			-3.655
43704.000			32.895			-3.655
43804.000			32.893			-3.655
43905.000			32.891			-3.655
44004.000			32.888			-3.654
44104.000			32.887			-3.654
44205.000			32.885			-3.654
44303.000			32.882			-3.654
44404.000			32.879			-3.653
44505.000			32.877			-3.653
44604.000			32.875			-3.653
44704.000			32.875			-3.653
44805.000			32.873			-3.653
44904.000			32.871			-3.652
45003.000			32.868			-3.652
45105.000			32.866			-3.652
45204.000			32.863			-3.651
45304.000			32.860			-3.651
45405.000			32.859			-3.651
45504.000			32.857			-3.651
45604.000			32.855			-3.651
45704.000			32.854			-3.650
45804.000			32.849			-3.650
45904.000			32.847			-3.650
46004.000			32.845			-3.649
46104.000			32.843			-3.649
46205.000			32.842			-3.649
46304.000			32.840			-3.649
46403.000			32.838			-3.649
46505.000			32.834			-3.648
46604.000			32.832			-3.648
46704.000			32.829			-3.648
46805.000			32.828			-3.648
46904.000			32.826			-3.647
47004.000			32.823			-3.647
47104.000			32.821			-3.647
47204.000			32.820			-3.647
47304.000			32.816			-3.646
47405.000			32.813			-3.646
47504.000			32.811			-3.646
47604.000			32.809			-3.645
47705.000			32.808			-3.645
47803.000			32.805			-3.645
47904.000			32.804			-3.645
48005.000			32.799			-3.644
48104.000			32.797			-3.644
48204.000			32.796			-3.644
48305.000			32.794			-3.644
48404.000			32.792			-3.644
48503.000			32.790			-3.643
48605.000			32.788			-3.643
48704.000			32.784			-3.643
48804.000			32.781			-3.642
48905.000			32.778			-3.642
49004.000			32.777			-3.642
49104.000			32.776			-3.642
49203.000			32.774			-3.642
49304.000			32.771			-3.641
49405.000			32.768			-3.641
49504.000			32.766			-3.641
49604.000			32.764			-3.640
49705.000			32.762			-3.640
49804.000			32.760			-3.640
49903.000			32.759			-3.640
50005.000			32.757			-3.640
50104.000			32.755			-3.639
50204.000			32.751			-3.639
50305.000			32.749			-3.639
50404.000			32.746			-3.638
50504.000			32.745			-3.638
50604.000			32.744			-3.638
50704.000			32.742			-3.638
50804.000			32.740			-3.638
50905.000			32.735			-3.637
51004.000			32.734			-3.637
51104.000			32.732			-3.637
51205.000			32.730			-3.637
51303.000			32.729			-3.637
51404.000			32.727			-3.636
51505.000			32.725			-3.636
51604.000			32.723			-3.636
51704.000			32.720			-3.636
51805.000			32.718			-3.635
51904.000			32.716			-3.635
52003.000			32.714			-3.635
52105.000			32.713			-3.635
52204.000			32.711			-3.635
52304.000			32.709			-3.634
52405.000			32.706			-3.634
52503.000			32.704			-3.634
52605.000			32.703			-3.634
52704.000			32.701			-3.633
52804.000			32.700			-3.633
52905.000			32.697			-3.633
53004.000			32.695			-3.633
53104.000			32.692			-3.632
53204.000			32.690			-3.632
53304.000			32.688			-3.632
53404.000			32.687			-3.632
53505.000			32.685			-3.632
53604.000			32.683			-3.631
53704.000			32.682			-3.631
53805.000			32.678			-3.631
53903.000			32.676			-3.631
54004.000			32.674			-3.630
54105.000			32.672			-3.630
54204.000			32.671			-3.630
54304.000			32.670			-3.630
54405.000			32.668			-3.630
54504.000			32.665			-3.629
54603.000			32.663			-3.629
54705.000			32.661			-3.629
54804.000			32.660			-3.629
54904.000			32.658			-3.629
55005.000			32.656			-3.628
55104.000			32.655			-3.628
55204.000			32.653			-3.628
55304.000			32.649			-3.628
55404.000			32.648			-3.628
55504.000			32.645			-3.627
55604.000			32.645			-3.627
55704.000			32.644			-3.627
55803.000			32.642			-3.627
55904.000			32.640			-3.627
56004.000			32.635			-3.626
56105.000			32.635			-3.626
56204.000			32.633			-3.626
56304.000			32.631			-3.626
56405.000			32.629			-3.625
56503.000			32.628			-3.625
56604.000			32.626			-3.625
56705.000			32.625			-3.625
56804.000			32.622			-3.625
56904.000			32.619			-3.624
57005.000			32.618			-3.624
57104.000			32.616			-3.624
57203.000			32.614			-3.624
57305.000			32.614			-3.624
57404.000			32.612			-3.624
57504.000			32.609			-3.623
57605.000			32.608			-3.623
57704.000			32.606			-3.623
57804.000			32.604			-3.623
57904.000			32.603			-3.623
58004.000			32.602			-3.622
58104.000			32.600			-3.622
58205.000			32.597			-3.622
58304.000			32.596			-3.622
58404.000			32.594			-3.622
58505.000			32.592			-3.621
58603.000			32.589			-3.621
58704.000			32.588			-3.621
58805.000			32.587			-3.621
58904.000			32.583			-3.620
59005.000			32.582			-3.620
59104.000			32.580			-3.620
59204.000			32.579			-3.620
59304.000			32.579			-3.620
59404.000			32.576			-3.620
59504.000			32.574			-3.619
59605.000			32.573			-3.619
59704.000			32.571			-3.619
59804.000			32.570			-3.619
59905.000			32.568			-3.619
60003.000			32.566			-3.618
60104.000			32.565			-3.618
60205.000			32.563			-3.618
60304.000			32.562			-3.618
60404.000			32.557			-3.617
60505.000			32.556			-3.617
60604.000			32.555			-3.617
60703.000			32.554			-3.617
60805.000			32.553			-3.617
60904.000			32.551			-3.617
61004.000			32.548			-3.616
61105.000			32.546			-3.616
61204.000			32.545			-3.616
61304.000			32.543			-3.616
61404.000			32.542			-3.616
61504.000			32.540			-3.616
61604.000			32.539			-3.615
61705.000			32.537			-3.615
61804.000			32.534			-3.615
61903.000			32.533			-3.615
62005.000			32.532			-3.615
62104.000			32.531			-3.615
62205.000			32.530			-3.614
62304.000			32.528			-3.614
62404.000			32.526			-3.614
62505.000			32.525			-3.614
62603.000			32.521			-3.613
62704.000			32.520			-3.613
62805.000			32.519			-3.613
62904.000			32.517			-3.613
63004.000			32.515			-3.613
63105.000			32.513			-3.613
63204.000			32.511			-3.612
63303.000			32.510			-3.612
63405.000			32.508			-3.612
63504.000			32.507			-3.612
63604.000			32.506			-3.612
63705.000			32.505			-3.612
63804.000			32.503			-3.611
63904.000			32.502			-3.611
64004.000			32.500			-3.611
64104.000			32.498			-3.611
64204.000			32.497			-3.611
64305.000			32.494			-3.610
64404.000			32.493			-3.610
64504.000			32.492			-3.610
64605.000			32.491			-3.610
64703.000			32.487			-3.610
64804.000			32.486			-3.610
64905.000			32.485			-3.609
65004.000			32.484			-3.609
65104.000			32.482			-3.609
65204.000			32.480			-3.609
65304.000			32.479			-3.609
65403.000			32.477			-3.609
65504.000			32.476			-3.608
65604.000			32.475			-3.608
65705.000			32.474			-3.608
65804.000			32.472			-3.608
65904.000			32.470			-3.608
66005.000			32.470			-3.608
66103.000			32.469			-3.608
66204.000			32.465			-3.607
66305.000			32.464			-3.607
66404.000			32.464			-3.607
66504.000			32.463			-3.607
66605.000			32.462			-3.607
66704.000			32.459			-3.607
66803.000			32.458			-3.606
66905.000			32.455			-3.606
67004.000			32.454			-3.606
67104.000			32.452			-3.606
67205.000			32.451			-3.606
67304.000			32.449			-3.605
67404.000			32.448			-3.605
67504.000			32.446			-3.605
67604.000			32.445			-3.605
67704.000			32.442			-3.605
67805.000			32.440			-3.604
67904.000			32.440			-3.604
68004.000			32.438			-3.604
68105.000			32.436			-3.604
68203.000			32.436			-3.604
68304.000			32.434			-3.604
68405.000			32.431			-3.603
68504.000			32.430			-3.603
68605.000			32.430			-3.603
68704.000			32.429			-3.603
68804.000			32.427			-3.603
68904.000			32.425			-3.603
69004.000			32.424			-3.603
69104.000			32.421			-3.602
69205.000			32.419			-3.602
69304.000			32.418			-3.602
69404.000			32.417			-3.602
69505.000			32.416			-3.602
69603.000			32.413			-3.601
69704.000			32.412			-3.601
69805.000			32.410			-3.601
69904.000			32.409			-3.601
70004.000			32.408			-3.601
70104.000			32.406			-3.601
70204.000			32.405			-3.601
70303.000			32.403			-3.600
70405.000			32.402			-3.600
70504.000			32.401			-3.600
70604.000			32.398			-3.600
70705.000			32.396			-3.600
70803.000			32.396			-3.600
70904.000			32.395			-3.599
71005.000			32.394			-3.599
71104.000			32.392			-3.599
71204.000			32.390			-3.599
