# Acquired on 25/01/2024 17:46:30 
# SPIDER: Creep_-7mm_GRPCNT1454A-3
# CREEP MEASUREMENT

# time [ms]		force [N]		stiffness [N/mm]
1.000			30.187			-4.312
105.000			31.545			-4.506
204.000			31.392			-4.485
304.000			31.129			-4.447
405.000			30.932			-4.419
504.000			30.772			-4.396
604.000			30.637			-4.377
705.000			30.521			-4.360
804.000			30.320			-4.331
903.000			30.236			-4.319
1005.000			30.160			-4.309
1104.000			30.088			-4.298
1204.000			30.022			-4.289
1305.000			29.961			-4.280
1403.000			29.903			-4.272
1504.000			29.797			-4.257
1605.000			29.750			-4.250
1704.000			29.703			-4.243
1804.000			29.660			-4.237
1905.000			29.618			-4.231
2004.000			29.579			-4.226
2103.000			29.541			-4.220
2205.000			29.472			-4.210
2304.000			29.438			-4.205
2404.000			29.406			-4.201
2505.000			29.375			-4.196
2604.000			29.345			-4.192
2704.000			29.315			-4.188
2804.000			29.287			-4.184
2904.000			29.234			-4.176
3004.000			29.208			-4.173
3104.000			29.184			-4.169
3204.000			29.160			-4.166
3303.000			29.137			-4.162
3404.000			29.114			-4.159
3504.000			29.092			-4.156
3605.000			29.071			-4.153
3704.000			29.029			-4.147
3804.000			29.010			-4.144
3905.000			28.991			-4.142
4003.000			28.971			-4.139
4104.000			28.952			-4.136
4205.000			28.935			-4.134
4304.000			28.917			-4.131
4404.000			28.883			-4.126
4505.000			28.866			-4.124
4604.000			28.850			-4.121
4703.000			28.833			-4.119
4805.000			28.818			-4.117
4904.000			28.803			-4.115
5004.000			28.787			-4.112
5105.000			28.757			-4.108
5204.000			28.743			-4.106
5304.000			28.730			-4.104
5404.000			28.715			-4.102
5504.000			28.700			-4.100
5604.000			28.687			-4.098
5705.000			28.674			-4.096
5804.000			28.661			-4.094
5903.000			28.637			-4.091
6005.000			28.623			-4.089
6104.000			28.611			-4.087
6204.000			28.599			-4.086
6305.000			28.587			-4.084
6404.000			28.576			-4.082
6505.000			28.564			-4.081
6603.000			28.541			-4.077
6704.000			28.530			-4.076
6805.000			28.519			-4.074
6904.000			28.507			-4.072
7004.000			28.498			-4.071
7105.000			28.488			-4.070
7204.000			28.476			-4.068
7303.000			28.456			-4.065
7405.000			28.446			-4.064
7504.000			28.437			-4.062
7604.000			28.428			-4.061
7705.000			28.418			-4.060
7804.000			28.408			-4.058
7904.000			28.399			-4.057
8004.000			28.380			-4.054
8104.000			28.371			-4.053
8204.000			28.363			-4.052
8305.000			28.354			-4.051
8404.000			28.345			-4.049
8503.000			28.336			-4.048
8605.000			28.328			-4.047
8704.000			28.319			-4.046
8804.000			28.301			-4.043
8905.000			28.292			-4.042
9004.000			28.284			-4.041
9104.000			28.277			-4.040
9204.000			28.269			-4.038
9304.000			28.262			-4.037
9404.000			28.254			-4.036
9504.000			28.239			-4.034
9604.000			28.231			-4.033
9705.000			28.224			-4.032
9804.000			28.216			-4.031
9903.000			28.208			-4.030
10005.000			28.201			-4.029
10104.000			28.195			-4.028
10204.000			28.180			-4.026
10305.000			28.173			-4.025
10404.000			28.166			-4.024
10504.000			28.159			-4.023
10604.000			28.152			-4.022
10704.000			28.145			-4.021
10804.000			28.138			-4.020
10905.000			28.125			-4.018
11004.000			28.119			-4.017
11103.000			28.112			-4.016
11205.000			28.105			-4.015
11304.000			28.099			-4.014
11404.000			28.093			-4.013
11505.000			28.087			-4.012
11604.000			28.080			-4.011
11704.000			28.069			-4.010
11804.000			28.063			-4.009
11904.000			28.056			-4.008
12004.000			28.050			-4.007
12105.000			28.044			-4.006
12204.000			28.038			-4.005
12304.000			28.032			-4.005
12405.000			28.021			-4.003
12503.000			28.016			-4.002
12604.000			28.009			-4.001
12705.000			28.004			-4.001
12804.000			27.999			-4.000
12905.000			27.994			-3.999
13004.000			27.988			-3.998
13104.000			27.977			-3.997
13204.000			27.971			-3.996
13304.000			27.967			-3.995
13404.000			27.962			-3.995
13505.000			27.957			-3.994
13604.000			27.952			-3.993
13704.000			27.946			-3.992
13805.000			27.940			-3.991
13903.000			27.932			-3.990
14004.000			27.926			-3.989
14105.000			27.921			-3.989
14204.000			27.916			-3.988
14304.000			27.912			-3.987
14405.000			27.907			-3.987
14504.000			27.901			-3.986
14603.000			27.892			-3.985
14705.000			27.887			-3.984
14804.000			27.883			-3.983
14904.000			27.878			-3.983
15005.000			27.873			-3.982
15104.000			27.868			-3.981
15204.000			27.864			-3.981
15304.000			27.854			-3.979
15404.000			27.850			-3.979
15504.000			27.845			-3.978
15605.000			27.840			-3.977
15704.000			27.835			-3.976
15804.000			27.830			-3.976
15905.000			27.826			-3.975
16003.000			27.817			-3.974
16105.000			27.813			-3.973
16204.000			27.808			-3.973
16304.000			27.804			-3.972
16405.000			27.799			-3.971
16504.000			27.796			-3.971
16604.000			27.791			-3.970
16704.000			27.786			-3.969
16804.000			27.778			-3.968
16904.000			27.773			-3.968
17005.000			27.768			-3.967
17104.000			27.764			-3.966
17204.000			27.760			-3.966
17305.000			27.756			-3.965
17403.000			27.752			-3.965
17504.000			27.745			-3.964
17605.000			27.740			-3.963
17704.000			27.737			-3.962
17804.000			27.732			-3.962
17905.000			27.727			-3.961
18004.000			27.723			-3.960
18103.000			27.720			-3.960
18205.000			27.712			-3.959
18304.000			27.708			-3.958
18404.000			27.704			-3.958
18505.000			27.700			-3.957
18604.000			27.695			-3.956
18704.000			27.691			-3.956
18804.000			27.688			-3.955
18904.000			27.684			-3.955
19004.000			27.677			-3.954
19104.000			27.672			-3.953
19204.000			27.669			-3.953
19303.000			27.665			-3.952
19404.000			27.662			-3.952
19503.000			27.658			-3.951
19605.000			27.655			-3.951
19704.000			27.646			-3.949
19804.000			27.643			-3.949
19905.000			27.640			-3.949
20004.000			27.636			-3.948
20104.000			27.633			-3.948
20204.000			27.630			-3.947
20304.000			27.627			-3.947
20404.000			27.620			-3.946
20505.000			27.617			-3.945
20604.000			27.613			-3.945
20704.000			27.610			-3.944
20805.000			27.607			-3.944
20903.000			27.604			-3.943
21004.000			27.601			-3.943
21105.000			27.594			-3.942
21204.000			27.591			-3.942
21304.000			27.587			-3.941
21404.000			27.584			-3.941
21504.000			27.581			-3.940
21604.000			27.579			-3.940
21705.000			27.575			-3.939
21804.000			27.571			-3.939
21904.000			27.566			-3.938
22005.000			27.562			-3.937
22103.000			27.559			-3.937
22204.000			27.556			-3.937
22305.000			27.553			-3.936
22404.000			27.551			-3.936
22505.000			27.547			-3.935
22604.000			27.539			-3.934
22704.000			27.536			-3.934
22804.000			27.533			-3.933
22904.000			27.530			-3.933
23004.000			27.526			-3.932
23105.000			27.523			-3.932
23204.000			27.520			-3.931
23304.000			27.515			-3.931
23405.000			27.511			-3.930
23503.000			27.509			-3.930
23604.000			27.506			-3.929
23705.000			27.503			-3.929
23804.000			27.500			-3.929
23904.000			27.495			-3.928
24005.000			27.493			-3.928
24104.000			27.489			-3.927
24203.000			27.484			-3.926
24305.000			27.481			-3.926
24404.000			27.479			-3.926
24504.000			27.477			-3.925
24605.000			27.474			-3.925
24704.000			27.472			-3.925
24804.000			27.466			-3.924
24904.000			27.463			-3.923
25004.000			27.460			-3.923
25104.000			27.457			-3.922
25205.000			27.454			-3.922
25304.000			27.452			-3.922
25404.000			27.450			-3.921
25505.000			27.444			-3.921
25603.000			27.441			-3.920
25705.000			27.438			-3.920
25804.000			27.436			-3.919
25904.000			27.432			-3.919
26005.000			27.429			-3.918
26104.000			27.427			-3.918
26204.000			27.423			-3.918
26304.000			27.420			-3.917
26404.000			27.418			-3.917
26504.000			27.414			-3.916
26605.000			27.412			-3.916
26704.000			27.410			-3.916
26804.000			27.407			-3.915
26905.000			27.404			-3.915
27003.000			27.398			-3.914
27104.000			27.396			-3.914
27205.000			27.393			-3.913
27304.000			27.392			-3.913
27404.000			27.390			-3.913
27505.000			27.387			-3.912
27604.000			27.385			-3.912
27703.000			27.379			-3.911
27805.000			27.377			-3.911
27904.000			27.375			-3.911
28004.000			27.371			-3.910
28105.000			27.369			-3.910
28204.000			27.367			-3.910
28304.000			27.364			-3.909
28404.000			27.361			-3.909
28504.000			27.358			-3.908
28604.000			27.355			-3.908
28704.000			27.352			-3.907
28804.000			27.350			-3.907
28903.000			27.347			-3.907
29004.000			27.345			-3.906
29103.000			27.343			-3.906
29205.000			27.338			-3.905
29304.000			27.336			-3.905
29404.000			27.333			-3.905
29505.000			27.330			-3.904
29603.000			27.328			-3.904
29704.000			27.326			-3.904
29804.000			27.323			-3.903
29904.000			27.317			-3.902
30004.000			27.316			-3.902
30105.000			27.314			-3.902
30204.000			27.312			-3.902
30303.000			27.309			-3.901
30405.000			27.307			-3.901
30504.000			27.305			-3.901
30604.000			27.299			-3.900
30705.000			27.298			-3.900
30804.000			27.296			-3.899
30904.000			27.293			-3.899
31004.000			27.291			-3.899
31104.000			27.289			-3.898
31204.000			27.286			-3.898
31305.000			27.281			-3.897
31404.000			27.279			-3.897
31504.000			27.276			-3.897
31605.000			27.274			-3.896
31703.000			27.272			-3.896
31804.000			27.270			-3.896
31905.000			27.268			-3.895
32004.000			27.265			-3.895
32105.000			27.262			-3.895
32204.000			27.259			-3.894
32304.000			27.257			-3.894
32404.000			27.256			-3.894
32504.000			27.252			-3.893
32604.000			27.250			-3.893
32705.000			27.248			-3.893
32804.000			27.243			-3.892
32904.000			27.240			-3.891
33005.000			27.238			-3.891
33103.000			27.236			-3.891
33204.000			27.234			-3.891
33305.000			27.232			-3.890
33404.000			27.230			-3.890
33504.000			27.226			-3.889
33605.000			27.223			-3.889
33704.000			27.221			-3.889
33803.000			27.219			-3.888
33905.000			27.217			-3.888
34004.000			27.215			-3.888
34104.000			27.212			-3.887
34205.000			27.209			-3.887
34304.000			27.206			-3.887
34404.000			27.203			-3.886
34505.000			27.200			-3.886
34604.000			27.199			-3.886
34704.000			27.197			-3.885
34805.000			27.195			-3.885
34904.000			27.193			-3.885
35003.000			27.188			-3.884
35105.000			27.186			-3.884
35204.000			27.185			-3.884
35305.000			27.182			-3.883
35404.000			27.180			-3.883
35504.000			27.178			-3.883
35605.000			27.176			-3.882
35703.000			27.172			-3.882
35804.000			27.170			-3.881
35905.000			27.169			-3.881
36004.000			27.166			-3.881
36104.000			27.165			-3.881
36205.000			27.163			-3.880
36304.000			27.161			-3.880
36403.000			27.157			-3.880
36505.000			27.154			-3.879
36604.000			27.153			-3.879
36704.000			27.150			-3.879
36805.000			27.148			-3.878
36904.000			27.146			-3.878
37004.000			27.144			-3.878
37104.000			27.142			-3.877
37204.000			27.139			-3.877
37304.000			27.137			-3.877
37405.000			27.135			-3.876
37504.000			27.134			-3.876
37604.000			27.131			-3.876
37705.000			27.129			-3.876
37803.000			27.128			-3.875
37904.000			27.123			-3.875
38005.000			27.121			-3.874
38104.000			27.119			-3.874
38204.000			27.117			-3.874
38304.000			27.116			-3.874
38404.000			27.115			-3.874
38503.000			27.114			-3.873
38604.000			27.109			-3.873
38704.000			27.108			-3.873
38805.000			27.105			-3.872
38904.000			27.103			-3.872
39003.000			27.102			-3.872
39105.000			27.101			-3.872
39204.000			27.099			-3.871
39304.000			27.094			-3.871
39405.000			27.093			-3.870
39504.000			27.092			-3.870
39604.000			27.089			-3.870
39704.000			27.088			-3.870
39804.000			27.087			-3.870
39904.000			27.085			-3.869
40005.000			27.084			-3.869
40104.000			27.080			-3.869
40204.000			27.078			-3.868
40305.000			27.078			-3.868
40403.000			27.077			-3.868
40504.000			27.075			-3.868
40605.000			27.072			-3.867
40704.000			27.071			-3.867
40804.000			27.068			-3.867
40905.000			27.065			-3.866
41004.000			27.064			-3.866
41103.000			27.061			-3.866
41205.000			27.060			-3.866
41304.000			27.059			-3.866
41404.000			27.057			-3.865
41505.000			27.053			-3.865
41604.000			27.051			-3.864
41705.000			27.049			-3.864
41803.000			27.048			-3.864
41904.000			27.047			-3.864
42005.000			27.046			-3.864
42104.000			27.045			-3.864
42204.000			27.042			-3.863
42304.000			27.037			-3.862
42404.000			27.036			-3.862
42504.000			27.035			-3.862
42605.000			27.033			-3.862
42704.000			27.031			-3.862
42804.000			27.029			-3.861
42905.000			27.028			-3.861
43003.000			27.025			-3.861
43104.000			27.022			-3.860
43205.000			27.020			-3.860
43304.000			27.019			-3.860
43404.000			27.018			-3.860
43505.000			27.017			-3.860
43604.000			27.016			-3.859
43703.000			27.012			-3.859
43805.000			27.011			-3.859
43904.000			27.010			-3.859
44004.000			27.009			-3.858
44105.000			27.007			-3.858
44203.000			27.006			-3.858
44304.000			27.004			-3.858
44405.000			27.001			-3.857
44504.000			26.999			-3.857
44604.000			26.998			-3.857
44704.000			26.997			-3.857
44804.000			26.995			-3.856
44903.000			26.994			-3.856
45004.000			26.992			-3.856
45104.000			26.992			-3.856
45205.000			26.989			-3.856
45304.000			26.987			-3.855
45404.000			26.985			-3.855
45505.000			26.984			-3.855
45603.000			26.982			-3.855
45704.000			26.981			-3.854
45805.000			26.979			-3.854
45904.000			26.975			-3.854
46004.000			26.973			-3.853
46105.000			26.972			-3.853
46204.000			26.971			-3.853
46304.000			26.969			-3.853
46405.000			26.967			-3.852
46503.000			26.965			-3.852
46604.000			26.963			-3.852
46705.000			26.961			-3.852
46804.000			26.959			-3.851
46904.000			26.958			-3.851
47005.000			26.956			-3.851
47104.000			26.954			-3.851
47203.000			26.953			-3.850
47305.000			26.950			-3.850
47404.000			26.947			-3.850
47504.000			26.946			-3.849
47605.000			26.945			-3.849
47704.000			26.943			-3.849
47804.000			26.941			-3.849
47903.000			26.940			-3.849
48004.000			26.938			-3.848
48105.000			26.935			-3.848
48204.000			26.935			-3.848
48304.000			26.934			-3.848
48405.000			26.932			-3.847
48504.000			26.930			-3.847
48603.000			26.930			-3.847
48705.000			26.929			-3.847
48804.000			26.925			-3.846
48904.000			26.923			-3.846
49005.000			26.923			-3.846
49104.000			26.921			-3.846
49204.000			26.920			-3.846
49304.000			26.920			-3.846
49404.000			26.917			-3.845
49504.000			26.915			-3.845
49605.000			26.914			-3.845
49704.000			26.912			-3.845
49804.000			26.911			-3.844
49905.000			26.909			-3.844
50003.000			26.909			-3.844
50104.000			26.907			-3.844
50205.000			26.906			-3.844
50304.000			26.903			-3.843
50404.000			26.902			-3.843
50505.000			26.900			-3.843
50604.000			26.899			-3.843
50703.000			26.898			-3.843
50805.000			26.897			-3.842
50904.000			26.895			-3.842
51004.000			26.893			-3.842
51105.000			26.891			-3.842
51204.000			26.890			-3.841
51305.000			26.887			-3.841
51403.000			26.885			-3.841
51504.000			26.884			-3.841
51605.000			26.883			-3.840
51704.000			26.881			-3.840
51804.000			26.879			-3.840
51905.000			26.878			-3.840
52004.000			26.877			-3.840
52103.000			26.875			-3.839
52205.000			26.874			-3.839
52304.000			26.872			-3.839
52404.000			26.869			-3.838
52505.000			26.867			-3.838
52604.000			26.865			-3.838
52704.000			26.865			-3.838
52804.000			26.864			-3.838
52904.000			26.863			-3.838
53004.000			26.861			-3.837
53105.000			26.859			-3.837
53204.000			26.857			-3.837
53304.000			26.856			-3.837
53405.000			26.854			-3.836
53503.000			26.853			-3.836
53604.000			26.851			-3.836
53705.000			26.849			-3.836
53804.000			26.849			-3.836
53904.000			26.847			-3.835
54005.000			26.845			-3.835
54104.000			26.844			-3.835
54203.000			26.842			-3.835
54305.000			26.841			-3.834
54404.000			26.841			-3.834
54505.000			26.839			-3.834
54604.000			26.837			-3.834
54704.000			26.835			-3.834
54805.000			26.834			-3.833
54903.000			26.833			-3.833
55004.000			26.832			-3.833
55105.000			26.830			-3.833
55204.000			26.827			-3.832
55304.000			26.827			-3.832
55405.000			26.824			-3.832
55504.000			26.823			-3.832
55603.000			26.822			-3.832
55705.000			26.822			-3.832
55804.000			26.820			-3.831
55904.000			26.818			-3.831
56005.000			26.817			-3.831
56104.000			26.814			-3.831
56204.000			26.814			-3.831
56304.000			26.813			-3.830
56404.000			26.811			-3.830
56504.000			26.809			-3.830
56605.000			26.808			-3.830
56704.000			26.807			-3.830
56804.000			26.805			-3.829
56905.000			26.804			-3.829
57003.000			26.803			-3.829
57104.000			26.802			-3.829
57205.000			26.800			-3.829
57304.000			26.798			-3.828
57404.000			26.798			-3.828
57504.000			26.796			-3.828
57604.000			26.795			-3.828
57703.000			26.793			-3.828
57804.000			26.791			-3.827
57904.000			26.790			-3.827
58005.000			26.789			-3.827
58104.000			26.789			-3.827
58204.000			26.788			-3.827
58305.000			26.785			-3.826
58403.000			26.783			-3.826
58504.000			26.782			-3.826
58605.000			26.781			-3.826
58704.000			26.780			-3.826
58804.000			26.780			-3.826
58905.000			26.778			-3.825
59004.000			26.774			-3.825
59103.000			26.774			-3.825
59205.000			26.773			-3.825
59304.000			26.772			-3.825
59404.000			26.770			-3.824
59505.000			26.769			-3.824
59604.000			26.768			-3.824
59704.000			26.766			-3.824
59804.000			26.765			-3.824
59904.000			26.765			-3.824
60004.000			26.765			-3.824
60105.000			26.764			-3.823
60204.000			26.762			-3.823
60304.000			26.761			-3.823
60405.000			26.759			-3.823
60503.000			26.759			-3.823
60604.000			26.758			-3.823
60705.000			26.757			-3.822
60804.000			26.755			-3.822
60905.000			26.755			-3.822
61004.000			26.753			-3.822
61104.000			26.751			-3.822
61204.000			26.750			-3.821
61304.000			26.749			-3.821
61404.000			26.748			-3.821
61505.000			26.747			-3.821
61604.000			26.747			-3.821
61704.000			26.745			-3.821
61805.000			26.743			-3.820
61903.000			26.742			-3.820
62004.000			26.742			-3.820
62105.000			26.741			-3.820
62204.000			26.739			-3.820
62304.000			26.738			-3.820
62405.000			26.737			-3.820
62504.000			26.737			-3.820
62603.000			26.734			-3.819
62705.000			26.732			-3.819
62804.000			26.730			-3.819
62904.000			26.730			-3.819
63005.000			26.729			-3.818
63104.000			26.729			-3.818
63204.000			26.728			-3.818
63304.000			26.726			-3.818
63404.000			26.723			-3.818
63504.000			26.721			-3.817
63605.000			26.719			-3.817
63704.000			26.718			-3.817
63804.000			26.718			-3.817
63905.000			26.717			-3.817
64003.000			26.717			-3.817
64105.000			26.714			-3.816
64204.000			26.712			-3.816
64304.000			26.710			-3.816
64405.000			26.709			-3.816
64504.000			26.708			-3.815
64604.000			26.707			-3.815
64704.000			26.707			-3.815
64804.000			26.704			-3.815
64904.000			26.704			-3.815
65005.000			26.703			-3.815
65104.000			26.701			-3.814
65203.000			26.700			-3.814
65305.000			26.699			-3.814
65403.000			26.698			-3.814
65504.000			26.697			-3.814
65605.000			26.695			-3.814
65704.000			26.693			-3.813
65804.000			26.692			-3.813
65905.000			26.691			-3.813
66004.000			26.690			-3.813
66103.000			26.689			-3.813
66205.000			26.689			-3.813
66304.000			26.685			-3.812
66404.000			26.685			-3.812
66505.000			26.683			-3.812
66604.000			26.683			-3.812
66704.000			26.682			-3.812
66804.000			26.681			-3.812
66904.000			26.679			-3.811
67004.000			26.677			-3.811
67104.000			26.676			-3.811
67204.000			26.675			-3.811
67305.000			26.674			-3.811
67404.000			26.672			-3.810
67503.000			26.671			-3.810
67605.000			26.669			-3.810
67704.000			26.668			-3.810
67804.000			26.668			-3.810
67905.000			26.667			-3.810
68004.000			26.665			-3.809
68104.000			26.665			-3.809
68204.000			26.663			-3.809
68304.000			26.661			-3.809
68403.000			26.661			-3.809
68505.000			26.658			-3.808
68604.000			26.658			-3.808
68704.000			26.657			-3.808
68805.000			26.655			-3.808
68904.000			26.654			-3.808
69004.000			26.654			-3.808
69104.000			26.652			-3.807
69204.000			26.650			-3.807
69304.000			26.649			-3.807
69405.000			26.648			-3.807
69504.000			26.647			-3.807
69604.000			26.646			-3.807
69705.000			26.645			-3.806
69803.000			26.645			-3.806
69904.000			26.642			-3.806
70005.000			26.641			-3.806
70104.000			26.640			-3.806
70204.000			26.638			-3.805
70304.000			26.638			-3.805
70404.000			26.637			-3.805
70503.000			26.635			-3.805
70604.000			26.633			-3.805
70704.000			26.633			-3.805
70805.000			26.632			-3.805
70904.000			26.631			-3.804
71004.000			26.630			-3.804
71105.000			26.629			-3.804
71203.000			26.627			-3.804
