# Acquired on 20/12/2023 12:31:20 
# SPIDER: Creep_5mm_07714532C-2
# CREEP MEASUREMENT

# time [ms]		force [N]		stiffness [N/mm]
0.000			-14.659			-2.932
101.000			-15.637			-3.127
200.000			-15.993			-3.199
300.000			-16.003			-3.201
402.000			-15.947			-3.189
501.000			-15.903			-3.181
601.000			-15.836			-3.167
700.000			-15.807			-3.161
800.000			-15.782			-3.156
901.000			-15.761			-3.152
1000.000			-15.739			-3.148
1101.000			-15.720			-3.144
1202.000			-15.702			-3.140
1300.000			-15.688			-3.138
1400.000			-15.659			-3.132
1501.000			-15.644			-3.129
1600.000			-15.632			-3.126
1700.000			-15.620			-3.124
1801.000			-15.609			-3.122
1901.000			-15.598			-3.120
2001.000			-15.586			-3.117
2101.000			-15.566			-3.113
2200.000			-15.557			-3.111
2300.000			-15.548			-3.110
2401.000			-15.539			-3.108
2500.000			-15.530			-3.106
2600.000			-15.522			-3.104
2702.000			-15.515			-3.103
2801.000			-15.507			-3.101
2900.000			-15.492			-3.098
3001.000			-15.485			-3.097
3100.000			-15.478			-3.096
3200.000			-15.470			-3.094
3301.000			-15.464			-3.093
3401.000			-15.458			-3.092
3501.000			-15.451			-3.090
3601.000			-15.440			-3.088
3700.000			-15.434			-3.087
3801.000			-15.429			-3.086
3900.000			-15.423			-3.085
4000.000			-15.417			-3.083
4101.000			-15.413			-3.083
4201.000			-15.407			-3.081
4301.000			-15.398			-3.080
4401.000			-15.392			-3.078
4500.000			-15.387			-3.077
4600.000			-15.383			-3.077
4701.000			-15.378			-3.076
4800.000			-15.373			-3.075
4900.000			-15.369			-3.074
5002.000			-15.364			-3.073
5101.000			-15.356			-3.071
5200.000			-15.352			-3.070
5301.000			-15.348			-3.070
5400.000			-15.343			-3.069
5500.000			-15.339			-3.068
5601.000			-15.335			-3.067
5701.000			-15.332			-3.066
5801.000			-15.324			-3.065
5901.000			-15.321			-3.064
6000.000			-15.317			-3.063
6100.000			-15.312			-3.062
6201.000			-15.310			-3.062
6300.000			-15.306			-3.061
6400.000			-15.302			-3.060
6502.000			-15.296			-3.059
6601.000			-15.292			-3.058
6700.000			-15.289			-3.058
6801.000			-15.286			-3.057
6900.000			-15.282			-3.056
7001.000			-15.278			-3.056
7100.000			-15.275			-3.055
7200.000			-15.273			-3.055
7302.000			-15.267			-3.053
7401.000			-15.264			-3.053
7500.000			-15.261			-3.052
7601.000			-15.258			-3.052
7700.000			-15.256			-3.051
7800.000			-15.253			-3.051
7901.000			-15.250			-3.050
8000.000			-15.243			-3.049
8101.000			-15.240			-3.048
8202.000			-15.238			-3.048
8300.000			-15.236			-3.047
8400.000			-15.232			-3.046
8501.000			-15.229			-3.046
8600.000			-15.227			-3.045
8700.000			-15.222			-3.044
8802.000			-15.221			-3.044
8901.000			-15.218			-3.044
9000.000			-15.215			-3.043
9101.000			-15.211			-3.042
9200.000			-15.209			-3.042
9300.000			-15.208			-3.042
9401.000			-15.205			-3.041
9500.000			-15.200			-3.040
9601.000			-15.197			-3.039
9702.000			-15.195			-3.039
9800.000			-15.193			-3.039
9900.000			-15.190			-3.038
10001.000			-15.188			-3.038
10100.000			-15.186			-3.037
10201.000			-15.180			-3.036
10301.000			-15.179			-3.036
10401.000			-15.178			-3.036
10502.000			-15.175			-3.035
10600.000			-15.172			-3.034
10700.000			-15.169			-3.034
10801.000			-15.168			-3.034
10900.000			-15.163			-3.033
11000.000			-15.161			-3.032
11102.000			-15.160			-3.032
11201.000			-15.158			-3.032
11300.000			-15.156			-3.031
11401.000			-15.154			-3.031
11500.000			-15.152			-3.030
11600.000			-15.149			-3.030
11701.000			-15.148			-3.030
11800.000			-15.144			-3.029
11901.000			-15.141			-3.028
12002.000			-15.141			-3.028
12100.000			-15.139			-3.028
12200.000			-15.137			-3.027
12301.000			-15.135			-3.027
12400.000			-15.131			-3.026
12500.000			-15.129			-3.026
12601.000			-15.128			-3.026
12701.000			-15.126			-3.025
12801.000			-15.124			-3.025
12901.000			-15.122			-3.024
13000.000			-15.121			-3.024
13100.000			-15.118			-3.024
13201.000			-15.115			-3.023
13300.000			-15.114			-3.023
13401.000			-15.112			-3.022
13501.000			-15.111			-3.022
13601.000			-15.109			-3.022
13701.000			-15.108			-3.022
13800.000			-15.106			-3.021
13900.000			-15.101			-3.020
14001.000			-15.100			-3.020
14100.000			-15.098			-3.020
14200.000			-15.097			-3.019
14302.000			-15.095			-3.019
14401.000			-15.092			-3.018
14500.000			-15.091			-3.018
14601.000			-15.089			-3.018
14700.000			-15.087			-3.017
14800.000			-15.084			-3.017
14901.000			-15.084			-3.017
15000.000			-15.082			-3.016
15101.000			-15.080			-3.016
15202.000			-15.079			-3.016
15300.000			-15.078			-3.016
15400.000			-15.075			-3.015
15501.000			-15.073			-3.015
15600.000			-15.071			-3.014
15700.000			-15.069			-3.014
15801.000			-15.069			-3.014
15901.000			-15.068			-3.014
16001.000			-15.066			-3.013
16101.000			-15.063			-3.013
16200.000			-15.062			-3.012
16300.000			-15.060			-3.012
16401.000			-15.058			-3.012
16500.000			-15.058			-3.012
16602.000			-15.058			-3.012
16701.000			-15.056			-3.011
16801.000			-15.052			-3.010
16901.000			-15.051			-3.010
17000.000			-15.049			-3.010
17100.000			-15.050			-3.010
17201.000			-15.048			-3.010
17300.000			-15.046			-3.009
17400.000			-15.045			-3.009
17502.000			-15.043			-3.009
17601.000			-15.040			-3.008
17700.000			-15.039			-3.008
17801.000			-15.038			-3.008
17900.000			-15.037			-3.007
18000.000			-15.036			-3.007
18101.000			-15.034			-3.007
18201.000			-15.033			-3.007
18301.000			-15.029			-3.006
18401.000			-15.029			-3.006
18500.000			-15.028			-3.006
18600.000			-15.027			-3.005
18701.000			-15.026			-3.005
18800.000			-15.024			-3.005
18900.000			-15.023			-3.005
19002.000			-15.021			-3.004
19101.000			-15.019			-3.004
19200.000			-15.018			-3.004
19301.000			-15.017			-3.003
19400.000			-15.015			-3.003
19500.000			-15.015			-3.003
19601.000			-15.013			-3.003
19700.000			-15.013			-3.003
19802.000			-15.009			-3.002
19901.000			-15.009			-3.002
20000.000			-15.008			-3.002
20101.000			-15.005			-3.001
20200.000			-15.005			-3.001
20300.000			-15.004			-3.001
20401.000			-15.003			-3.001
20500.000			-15.001			-3.000
20601.000			-14.999			-3.000
20702.000			-14.998			-3.000
20800.000			-14.997			-2.999
20900.000			-14.996			-2.999
21001.000			-14.995			-2.999
21100.000			-14.993			-2.999
21200.000			-14.990			-2.998
21301.000			-14.989			-2.998
21401.000			-14.989			-2.998
21501.000			-14.988			-2.998
21601.000			-14.987			-2.997
21700.000			-14.987			-2.997
21800.000			-14.985			-2.997
21901.000			-14.984			-2.997
22000.000			-14.982			-2.996
22100.000			-14.980			-2.996
22202.000			-14.979			-2.996
22301.000			-14.979			-2.996
22400.000			-14.978			-2.996
22501.000			-14.977			-2.995
22600.000			-14.976			-2.995
22700.000			-14.974			-2.995
22801.000			-14.973			-2.995
22900.000			-14.971			-2.994
23002.000			-14.971			-2.994
23101.000			-14.970			-2.994
23200.000			-14.969			-2.994
23301.000			-14.968			-2.994
23400.000			-14.966			-2.993
23500.000			-14.965			-2.993
23601.000			-14.963			-2.993
23700.000			-14.963			-2.993
23801.000			-14.962			-2.992
23902.000			-14.961			-2.992
24001.000			-14.959			-2.992
24100.000			-14.958			-2.992
24201.000			-14.956			-2.991
24300.000			-14.955			-2.991
24400.000			-14.955			-2.991
24501.000			-14.955			-2.991
24601.000			-14.954			-2.991
24701.000			-14.953			-2.991
24801.000			-14.952			-2.990
24900.000			-14.949			-2.990
25000.000			-14.949			-2.990
25101.000			-14.947			-2.989
25200.000			-14.947			-2.989
25300.000			-14.947			-2.989
25401.000			-14.945			-2.989
25501.000			-14.944			-2.989
25601.000			-14.943			-2.989
25701.000			-14.941			-2.988
25800.000			-14.941			-2.988
25900.000			-14.940			-2.988
26001.000			-14.939			-2.988
26100.000			-14.938			-2.988
26201.000			-14.938			-2.988
26301.000			-14.936			-2.987
26401.000			-14.935			-2.987
26501.000			-14.934			-2.987
26600.000			-14.933			-2.987
26700.000			-14.932			-2.986
26801.000			-14.931			-2.986
26900.000			-14.931			-2.986
27000.000			-14.929			-2.986
27102.000			-14.928			-2.986
27201.000			-14.927			-2.985
27300.000			-14.926			-2.985
27401.000			-14.925			-2.985
27500.000			-14.925			-2.985
27600.000			-14.923			-2.985
27701.000			-14.923			-2.985
27800.000			-14.921			-2.984
27901.000			-14.920			-2.984
28002.000			-14.920			-2.984
28101.000			-14.919			-2.984
28200.000			-14.918			-2.984
28301.000			-14.916			-2.983
28400.000			-14.915			-2.983
28500.000			-14.915			-2.983
28601.000			-14.914			-2.983
28700.000			-14.912			-2.982
28801.000			-14.911			-2.982
28902.000			-14.911			-2.982
29000.000			-14.910			-2.982
29100.000			-14.908			-2.982
29201.000			-14.908			-2.982
29300.000			-14.907			-2.981
29401.000			-14.906			-2.981
29500.000			-14.905			-2.981
29601.000			-14.904			-2.981
29702.000			-14.904			-2.981
29800.000			-14.903			-2.981
29900.000			-14.903			-2.981
30001.000			-14.901			-2.980
30100.000			-14.899			-2.980
30200.000			-14.899			-2.980
30301.000			-14.899			-2.980
30401.000			-14.899			-2.980
30501.000			-14.897			-2.979
30601.000			-14.895			-2.979
30700.000			-14.895			-2.979
30800.000			-14.894			-2.979
30901.000			-14.894			-2.979
31000.000			-14.893			-2.979
31100.000			-14.892			-2.978
31202.000			-14.891			-2.978
31301.000			-14.890			-2.978
31400.000			-14.889			-2.978
31501.000			-14.887			-2.977
31600.000			-14.887			-2.977
31700.000			-14.886			-2.977
31801.000			-14.885			-2.977
31900.000			-14.885			-2.977
32001.000			-14.884			-2.977
32102.000			-14.883			-2.977
32200.000			-14.882			-2.976
32300.000			-14.881			-2.976
32401.000			-14.880			-2.976
32500.000			-14.879			-2.976
32601.000			-14.879			-2.976
32700.000			-14.877			-2.975
32800.000			-14.877			-2.975
32902.000			-14.877			-2.975
33001.000			-14.875			-2.975
33100.000			-14.875			-2.975
33201.000			-14.874			-2.975
33300.000			-14.873			-2.975
33400.000			-14.873			-2.975
33501.000			-14.872			-2.974
33600.000			-14.871			-2.974
33701.000			-14.870			-2.974
33802.000			-14.869			-2.974
33900.000			-14.869			-2.974
34000.000			-14.869			-2.974
34101.000			-14.868			-2.974
34200.000			-14.866			-2.973
34300.000			-14.865			-2.973
34401.000			-14.865			-2.973
34501.000			-14.864			-2.973
34601.000			-14.864			-2.973
34701.000			-14.862			-2.972
34800.000			-14.861			-2.972
34900.000			-14.861			-2.972
35001.000			-14.860			-2.972
35100.000			-14.860			-2.972
35200.000			-14.859			-2.972
35302.000			-14.858			-2.972
35401.000			-14.857			-2.971
35500.000			-14.856			-2.971
35601.000			-14.855			-2.971
35700.000			-14.855			-2.971
35801.000			-14.855			-2.971
35900.000			-14.854			-2.971
36000.000			-14.852			-2.970
36102.000			-14.851			-2.970
36201.000			-14.852			-2.970
36300.000			-14.851			-2.970
36401.000			-14.850			-2.970
36500.000			-14.850			-2.970
36600.000			-14.849			-2.970
36701.000			-14.848			-2.970
36800.000			-14.847			-2.969
36901.000			-14.845			-2.969
37002.000			-14.844			-2.969
37100.000			-14.844			-2.969
37200.000			-14.844			-2.969
37301.000			-14.845			-2.969
37400.000			-14.843			-2.969
37500.000			-14.842			-2.968
37601.000			-14.841			-2.968
37701.000			-14.840			-2.968
37801.000			-14.841			-2.968
37901.000			-14.840			-2.968
38000.000			-14.839			-2.968
38100.000			-14.837			-2.967
38201.000			-14.836			-2.967
38300.000			-14.837			-2.967
38400.000			-14.835			-2.967
38502.000			-14.834			-2.967
38601.000			-14.834			-2.967
38700.000			-14.833			-2.967
38801.000			-14.833			-2.967
38900.000			-14.832			-2.966
39001.000			-14.831			-2.966
39100.000			-14.831			-2.966
39200.000			-14.831			-2.966
39302.000			-14.829			-2.966
39401.000			-14.828			-2.966
39501.000			-14.828			-2.966
39601.000			-14.827			-2.965
39700.000			-14.827			-2.965
39800.000			-14.826			-2.965
39901.000			-14.825			-2.965
40000.000			-14.824			-2.965
40100.000			-14.824			-2.965
40202.000			-14.823			-2.965
40301.000			-14.822			-2.964
40400.000			-14.822			-2.964
40501.000			-14.820			-2.964
40600.000			-14.819			-2.964
40700.000			-14.819			-2.964
40801.000			-14.819			-2.964
40901.000			-14.820			-2.964
41001.000			-14.819			-2.964
41101.000			-14.816			-2.963
41200.000			-14.816			-2.963
41300.000			-14.815			-2.963
41401.000			-14.815			-2.963
41500.000			-14.815			-2.963
41600.000			-14.814			-2.963
41702.000			-14.814			-2.963
41801.000			-14.813			-2.963
41900.000			-14.813			-2.963
42001.000			-14.812			-2.962
42100.000			-14.811			-2.962
42201.000			-14.811			-2.962
42300.000			-14.810			-2.962
42400.000			-14.808			-2.962
42502.000			-14.807			-2.961
42601.000			-14.807			-2.961
42700.000			-14.807			-2.961
42801.000			-14.807			-2.961
42900.000			-14.806			-2.961
43000.000			-14.805			-2.961
43101.000			-14.804			-2.961
43200.000			-14.804			-2.961
43301.000			-14.803			-2.961
43402.000			-14.802			-2.960
43500.000			-14.801			-2.960
43600.000			-14.801			-2.960
43701.000			-14.801			-2.960
43800.000			-14.801			-2.960
43900.000			-14.800			-2.960
44001.000			-14.799			-2.960
44101.000			-14.798			-2.960
44201.000			-14.798			-2.960
44301.000			-14.798			-2.960
44400.000			-14.797			-2.959
44500.000			-14.795			-2.959
44601.000			-14.795			-2.959
44700.000			-14.793			-2.959
44800.000			-14.793			-2.959
44902.000			-14.792			-2.958
45001.000			-14.793			-2.959
45100.000			-14.793			-2.959
45201.000			-14.793			-2.959
45300.000			-14.792			-2.958
45401.000			-14.791			-2.958
45500.000			-14.790			-2.958
45600.000			-14.789			-2.958
45702.000			-14.790			-2.958
45801.000			-14.789			-2.958
45901.000			-14.788			-2.958
46001.000			-14.787			-2.957
46100.000			-14.787			-2.957
46200.000			-14.786			-2.957
46301.000			-14.785			-2.957
46400.000			-14.784			-2.957
46500.000			-14.783			-2.957
46602.000			-14.784			-2.957
46701.000			-14.783			-2.957
46800.000			-14.783			-2.957
46901.000			-14.781			-2.956
47000.000			-14.782			-2.956
47100.000			-14.781			-2.956
47201.000			-14.780			-2.956
47300.000			-14.779			-2.956
47401.000			-14.779			-2.956
47502.000			-14.780			-2.956
47600.000			-14.779			-2.956
47700.000			-14.778			-2.956
47801.000			-14.777			-2.955
47900.000			-14.777			-2.955
48000.000			-14.776			-2.955
48101.000			-14.775			-2.955
48201.000			-14.774			-2.955
48301.000			-14.774			-2.955
48401.000			-14.774			-2.955
48500.000			-14.773			-2.955
48601.000			-14.773			-2.955
48700.000			-14.772			-2.954
48800.000			-14.772			-2.954
48901.000			-14.772			-2.954
49000.000			-14.771			-2.954
49101.000			-14.769			-2.954
49202.000			-14.770			-2.954
49300.000			-14.770			-2.954
49400.000			-14.768			-2.954
49501.000			-14.767			-2.953
49600.000			-14.767			-2.953
49700.000			-14.767			-2.953
49801.000			-14.767			-2.953
49901.000			-14.766			-2.953
50001.000			-14.765			-2.953
50101.000			-14.764			-2.953
50200.000			-14.763			-2.953
50300.000			-14.765			-2.953
50401.000			-14.762			-2.952
50500.000			-14.761			-2.952
50600.000			-14.761			-2.952
50702.000			-14.761			-2.952
50801.000			-14.760			-2.952
50900.000			-14.760			-2.952
51001.000			-14.760			-2.952
51100.000			-14.760			-2.952
51200.000			-14.760			-2.952
51301.000			-14.758			-2.952
51400.000			-14.757			-2.951
51501.000			-14.757			-2.951
51602.000			-14.756			-2.951
51700.000			-14.756			-2.951
51801.000			-14.755			-2.951
51900.000			-14.755			-2.951
52000.000			-14.753			-2.951
52101.000			-14.753			-2.951
52200.000			-14.753			-2.951
52301.000			-14.753			-2.951
52402.000			-14.752			-2.950
52500.000			-14.752			-2.950
52600.000			-14.751			-2.950
52701.000			-14.751			-2.950
52800.000			-14.750			-2.950
52900.000			-14.750			-2.950
53001.000			-14.748			-2.950
53101.000			-14.749			-2.950
53201.000			-14.749			-2.950
53301.000			-14.748			-2.950
53400.000			-14.748			-2.950
53500.000			-14.747			-2.949
53601.000			-14.746			-2.949
53700.000			-14.746			-2.949
53800.000			-14.745			-2.949
53902.000			-14.745			-2.949
54001.000			-14.745			-2.949
54100.000			-14.743			-2.949
54201.000			-14.743			-2.949
54300.000			-14.742			-2.948
54400.000			-14.742			-2.948
54501.000			-14.743			-2.949
54600.000			-14.742			-2.948
54701.000			-14.740			-2.948
54802.000			-14.739			-2.948
54900.000			-14.739			-2.948
55001.000			-14.740			-2.948
55100.000			-14.740			-2.948
55200.000			-14.738			-2.948
55301.000			-14.737			-2.947
55400.000			-14.738			-2.948
55500.000			-14.737			-2.947
55602.000			-14.736			-2.947
55701.000			-14.736			-2.947
55800.000			-14.736			-2.947
55901.000			-14.735			-2.947
56000.000			-14.736			-2.947
56100.000			-14.736			-2.947
56201.000			-14.734			-2.947
56300.000			-14.733			-2.947
56401.000			-14.733			-2.947
56502.000			-14.732			-2.946
56600.000			-14.731			-2.946
56700.000			-14.731			-2.946
56801.000			-14.731			-2.946
56900.000			-14.731			-2.946
57000.000			-14.730			-2.946
57101.000			-14.730			-2.946
57201.000			-14.728			-2.946
57301.000			-14.728			-2.946
57401.000			-14.728			-2.946
57500.000			-14.728			-2.946
57600.000			-14.727			-2.945
57701.000			-14.727			-2.945
57800.000			-14.726			-2.945
57900.000			-14.726			-2.945
58002.000			-14.726			-2.945
58101.000			-14.725			-2.945
58201.000			-14.724			-2.945
58300.000			-14.723			-2.945
58400.000			-14.723			-2.945
58501.000			-14.724			-2.945
58600.000			-14.723			-2.945
58700.000			-14.722			-2.944
58802.000			-14.722			-2.944
58901.000			-14.721			-2.944
59000.000			-14.721			-2.944
59101.000			-14.721			-2.944
59200.000			-14.720			-2.944
59300.000			-14.720			-2.944
59401.000			-14.720			-2.944
59500.000			-14.718			-2.944
59601.000			-14.718			-2.944
59702.000			-14.718			-2.944
59800.000			-14.717			-2.943
59900.000			-14.716			-2.943
60001.000			-14.716			-2.943
60100.000			-14.716			-2.943
60200.000			-14.715			-2.943
60301.000			-14.715			-2.943
60401.000			-14.715			-2.943
60501.000			-14.715			-2.943
60601.000			-14.715			-2.943
60700.000			-14.713			-2.943
60800.000			-14.713			-2.943
60901.000			-14.713			-2.943
61000.000			-14.712			-2.942
61100.000			-14.711			-2.942
61202.000			-14.712			-2.942
61301.000			-14.712			-2.942
61401.000			-14.711			-2.942
61500.000			-14.710			-2.942
61600.000			-14.708			-2.942
61701.000			-14.709			-2.942
61800.000			-14.709			-2.942
61900.000			-14.709			-2.942
62002.000			-14.708			-2.942
62101.000			-14.709			-2.942
62200.000			-14.708			-2.942
62301.000			-14.708			-2.942
62400.000			-14.707			-2.941
62500.000			-14.706			-2.941
62601.000			-14.706			-2.941
62700.000			-14.705			-2.941
62801.000			-14.704			-2.941
62902.000			-14.704			-2.941
63000.000			-14.704			-2.941
63100.000			-14.704			-2.941
63201.000			-14.703			-2.941
63300.000			-14.702			-2.940
63400.000			-14.703			-2.941
63501.000			-14.702			-2.940
63601.000			-14.701			-2.940
63701.000			-14.701			-2.940
63801.000			-14.701			-2.940
63900.000			-14.700			-2.940
64000.000			-14.700			-2.940
64101.000			-14.698			-2.940
64200.000			-14.699			-2.940
64300.000			-14.699			-2.940
64402.000			-14.698			-2.940
64501.000			-14.697			-2.939
64601.000			-14.696			-2.939
64700.000			-14.697			-2.939
64800.000			-14.697			-2.939
64901.000			-14.695			-2.939
65000.000			-14.695			-2.939
65100.000			-14.695			-2.939
65202.000			-14.695			-2.939
65301.000			-14.695			-2.939
65401.000			-14.695			-2.939
65501.000			-14.693			-2.939
65600.000			-14.693			-2.939
65700.000			-14.692			-2.938
65801.000			-14.692			-2.938
65900.000			-14.692			-2.938
66000.000			-14.690			-2.938
66102.000			-14.690			-2.938
66201.000			-14.691			-2.938
66300.000			-14.690			-2.938
66401.000			-14.690			-2.938
66500.000			-14.689			-2.938
66600.000			-14.688			-2.938
66701.000			-14.688			-2.938
66800.000			-14.688			-2.938
66901.000			-14.687			-2.937
67002.000			-14.686			-2.937
67100.000			-14.687			-2.937
67200.000			-14.687			-2.937
67301.000			-14.687			-2.937
67400.000			-14.687			-2.937
67500.000			-14.685			-2.937
67601.000			-14.685			-2.937
67701.000			-14.685			-2.937
67802.000			-14.683			-2.937
67901.000			-14.683			-2.937
68000.000			-14.684			-2.937
68101.000			-14.683			-2.937
68200.000			-14.682			-2.936
68300.000			-14.681			-2.936
68401.000			-14.682			-2.936
68500.000			-14.681			-2.936
68601.000			-14.682			-2.936
68702.000			-14.680			-2.936
68800.000			-14.680			-2.936
